title:sad, start timestamp:1677472161.719897, stop timestamp:1677472222.949395, headset type:EPOCX, headset serial:E50201C8, headset firmware:720, channels:67, sampling rate:eeg_128;mot_32, samples:7843      , version:2.1, 
Timestamp,OriginalTimestamp,EEG.Counter,EEG.Interpolated,EEG.AF3,EEG.F7,EEG.F3,EEG.FC5,EEG.T7,EEG.P7,EEG.O1,EEG.O2,EEG.P8,EEG.T8,EEG.FC6,EEG.F4,EEG.F8,EEG.AF4,EEG.RawCq,EEG.Battery,EEG.BatteryPercent,MarkerIndex,MarkerType,MarkerValueInt,EEG.MarkerHardware,CQ.AF3,CQ.F7,CQ.F3,CQ.FC5,CQ.T7,CQ.P7,CQ.O1,CQ.O2,CQ.P8,CQ.T8,CQ.FC6,CQ.F4,CQ.F8,CQ.AF4,CQ.Overall,EQ.SampleRateQuality,EQ.OVERALL,EQ.AF3,EQ.F7,EQ.F3,EQ.FC5,EQ.T7,EQ.P7,EQ.O1,EQ.O2,EQ.P8,EQ.T8,EQ.FC6,EQ.F4,EQ.F8,EQ.AF4,MOT.CounterMems,MOT.InterpolatedMems,MOT.Q0,MOT.Q1,MOT.Q2,MOT.Q3,MOT.AccX,MOT.AccY,MOT.AccZ,MOT.MagX,MOT.MagY,MOT.MagZ
1677472161.719897,1677472162.164657,105.000000,0.000000,4248.461426,4231.282227,4277.563965,4249.358887,4249.615234,4260.512695,4258.846191,4259.487305,4248.205078,4235.897461,4459.487305,4468.077148,4341.282227,4397.436035,6658.000000,4.000000,98.000000,,,,0.000000,4.000000,4.000000,4.000000,4.000000,4.000000,4.000000,4.000000,4.000000,4.000000,4.000000,4.000000,4.000000,4.000000,4.000000,100.000000,,,,,,,,,,,,,,,,,,,,,,,,,,,,
1677472161.727705,1677472162.172365,106.000000,0.000000,4245.897461,4229.102539,4275.769043,4247.179688,4250.641113,4261.538574,4261.538574,4259.487305,4250.000000,4248.205078,4458.077148,4473.461426,4340.897461,4398.205078,6022.000000,4.000000,98.000000,,,,0.000000,4.000000,4.000000,4.000000,4.000000,4.000000,4.000000,4.000000,4.000000,4.000000,4.000000,4.000000,4.000000,4.000000,4.000000,100.000000,,,,,,,,,,,,,,,,,,,,,,,,,,,,
1677472161.735513,1677472162.180173,107.000000,0.000000,4244.743652,4230.000000,4279.743652,4249.358887,4249.743652,4265.512695,4263.717773,4262.179688,4255.769043,4252.179688,4457.051270,4471.922852,4346.025879,4408.717773,6317.000000,4.000000,98.000000,,,,0.000000,4.000000,4.000000,4.000000,4.000000,4.000000,4.000000,4.000000,4.000000,4.000000,4.000000,4.000000,4.000000,4.000000,4.000000,100.000000,,,,,,,,,,,,,,,,,,,,,,,,,,,,
1677472161.743321,1677472162.187882,108.000000,0.000000,4251.025879,4235.256348,4283.077148,4252.179688,4251.282227,4267.948730,4264.230957,4265.769043,4262.179688,4245.512695,4461.794922,4466.153809,4352.692383,4409.102539,5950.000000,4.000000,98.000000,,,,0.000000,4.000000,4.000000,4.000000,4.000000,4.000000,4.000000,4.000000,4.000000,4.000000,4.000000,4.000000,4.000000,4.000000,4.000000,100.000000,,,,,,,,,,,,,,,,,27.000000,0.000000,0.688949,-0.208740,-0.694092,-0.003662,0.954218,-0.301795,0.011232,-113.395607,19.512117,5.801919
1677472161.751129,1677472162.195689,109.000000,0.000000,4243.974121,4223.461426,4276.153809,4247.436035,4260.897461,4265.897461,4264.743652,4268.333496,4264.487305,4244.230957,4458.461426,4467.563965,4343.589844,4391.410156,6658.000000,4.000000,98.000000,,,,0.000000,4.000000,4.000000,4.000000,4.000000,4.000000,4.000000,4.000000,4.000000,4.000000,4.000000,4.000000,4.000000,4.000000,4.000000,100.000000,,,,,,,,,,,,,,,,,,,,,,,,,,,,
1677472161.758937,1677472162.203398,110.000000,0.000000,4225.897461,4207.948730,4264.487305,4238.974121,4261.410156,4266.153809,4266.282227,4264.230957,4259.230957,4245.128418,4451.025879,4462.692383,4329.358887,4384.743652,6022.000000,4.000000,98.000000,,,,0.000000,4.000000,4.000000,4.000000,4.000000,4.000000,4.000000,4.000000,4.000000,4.000000,4.000000,4.000000,4.000000,4.000000,4.000000,100.000000,,,,,,,,,,,,,,,,,,,,,,,,,,,,
1677472161.766745,1677472162.211305,111.000000,0.000000,4233.205078,4221.410156,4267.307617,4245.256348,4253.974121,4273.974121,4267.563965,4261.794922,4257.307617,4247.692383,4453.333496,4454.230957,4336.410156,4401.794922,6317.000000,4.000000,98.000000,,,,0.000000,4.000000,4.000000,4.000000,4.000000,4.000000,4.000000,4.000000,4.000000,4.000000,4.000000,4.000000,4.000000,4.000000,4.000000,100.000000,,,,,,,,,,,,,,,,,,,,,,,,,,,,
1677472161.774552,1677472162.219113,112.000000,0.000000,4260.384766,4245.128418,4280.384766,4255.769043,4255.641113,4271.794922,4265.384766,4263.205078,4259.871582,4245.384766,4453.974121,4460.256348,4341.410156,4409.102539,5950.000000,4.000000,98.000000,,,,0.000000,4.000000,4.000000,4.000000,4.000000,4.000000,4.000000,4.000000,4.000000,4.000000,4.000000,4.000000,4.000000,4.000000,4.000000,100.000000,,,,,,,,,,,,,,,,,28.000000,0.000000,0.688888,-0.208740,-0.694153,-0.003479,0.952753,-0.307655,-0.000977,-113.472717,19.510906,5.905060
1677472161.782360,1677472162.227021,113.000000,0.000000,4274.743652,4253.846191,4290.384766,4260.128418,4262.563965,4261.538574,4267.436035,4261.153809,4257.436035,4238.077148,4453.461426,4475.128418,4331.666504,4416.922852,6658.000000,4.000000,98.000000,,,,0.000000,4.000000,4.000000,4.000000,4.000000,4.000000,4.000000,4.000000,4.000000,4.000000,4.000000,4.000000,4.000000,4.000000,4.000000,100.000000,,,,,,,,,,,,,,,,,,,,,,,,,,,,
1677472161.790168,1677472162.234829,114.000000,0.000000,4279.615234,4261.666504,4299.358887,4266.794922,4266.025879,4262.820313,4271.538574,4256.794922,4251.153809,4237.307617,4458.589844,4484.871582,4330.512695,4441.025879,6022.000000,4.000000,98.000000,,,,0.000000,4.000000,4.000000,4.000000,4.000000,4.000000,4.000000,4.000000,4.000000,4.000000,4.000000,4.000000,4.000000,4.000000,4.000000,100.000000,,,,,,,,,,,,,,,,,,,,,,,,,,,,
1677472161.797976,1677472162.242637,115.000000,0.000000,4289.230957,4267.307617,4301.794922,4267.051270,4266.538574,4265.641113,4266.922852,4254.358887,4245.897461,4236.666504,4457.692383,4482.051270,4333.077148,4451.666504,6317.000000,4.000000,98.000000,,,,0.000000,4.000000,4.000000,4.000000,4.000000,4.000000,4.000000,4.000000,4.000000,4.000000,4.000000,4.000000,4.000000,4.000000,4.000000,100.000000,,,,,,,,,,,,,,,,,,,,,,,,,,,,
1677472161.805784,1677472162.250345,116.000000,0.000000,4298.461426,4264.487305,4294.871582,4261.153809,4263.333496,4263.846191,4261.025879,4254.102539,4248.717773,4239.102539,4456.153809,4474.487305,4329.871582,4444.871582,5950.000000,4.000000,98.000000,,,,0.000000,4.000000,4.000000,4.000000,4.000000,4.000000,4.000000,4.000000,4.000000,4.000000,4.000000,4.000000,4.000000,4.000000,4.000000,100.000000,,,,,,,,,,,,,,,,,29.000000,0.000000,0.688866,-0.208618,-0.694214,-0.003113,0.939079,-0.293493,-0.000977,-113.558777,19.326483,5.814554
1677472161.813592,1677472162.258153,117.000000,0.000000,4296.153809,4264.358887,4289.615234,4264.487305,4258.846191,4266.666504,4265.897461,4259.743652,4257.948730,4251.538574,4463.846191,4478.461426,4335.769043,4447.436035,6658.000000,4.000000,98.000000,,,,0.000000,4.000000,4.000000,4.000000,4.000000,4.000000,4.000000,4.000000,4.000000,4.000000,4.000000,4.000000,4.000000,4.000000,4.000000,100.000000,,,,,,,,,,,,,,,,,,,,,,,,,,,,
1677472161.821400,1677472162.265861,118.000000,0.000000,4283.589844,4264.358887,4287.307617,4263.077148,4258.846191,4267.051270,4268.205078,4268.205078,4260.769043,4247.820313,4463.846191,4484.487305,4338.589844,4455.384766,6022.000000,4.000000,98.000000,,,,0.000000,4.000000,4.000000,4.000000,4.000000,4.000000,4.000000,4.000000,4.000000,4.000000,4.000000,4.000000,4.000000,4.000000,4.000000,100.000000,,,,,,,,,,,,,,,,,,,,,,,,,,,,
1677472161.829208,1677472162.273769,119.000000,0.000000,4278.077148,4261.153809,4287.948730,4260.512695,4262.948730,4265.384766,4266.153809,4264.615234,4255.128418,4233.077148,4453.589844,4480.384766,4326.794922,4446.922852,6317.000000,4.000000,98.000000,,,,0.000000,4.000000,4.000000,4.000000,4.000000,4.000000,4.000000,4.000000,4.000000,4.000000,4.000000,4.000000,4.000000,4.000000,4.000000,100.000000,,,,,,,,,,,,,,,,,,,,,,,,,,,,
1677472161.837016,1677472162.281577,120.000000,0.000000,4283.333496,4265.256348,4294.871582,4271.794922,4271.025879,4273.717773,4272.307617,4262.307617,4258.461426,4245.769043,4454.615234,4481.666504,4328.846191,4437.563965,5950.000000,4.000000,98.000000,,,,0.000000,4.000000,4.000000,4.000000,4.000000,4.000000,4.000000,4.000000,4.000000,4.000000,4.000000,4.000000,4.000000,4.000000,4.000000,100.000000,,,,,,,,,,,,,,,,,30.000000,0.000000,0.689002,-0.208374,-0.694153,-0.002930,0.942986,-0.299841,0.011232,-113.586235,19.410500,5.816432
1677472161.844823,1677472162.289485,121.000000,0.000000,4282.307617,4266.282227,4300.000000,4275.769043,4279.102539,4282.563965,4279.743652,4274.487305,4268.461426,4260.256348,4460.769043,4490.384766,4336.025879,4444.230957,6658.000000,4.000000,98.000000,,,,0.000000,4.000000,4.000000,4.000000,4.000000,4.000000,4.000000,4.000000,4.000000,4.000000,4.000000,4.000000,4.000000,4.000000,4.000000,100.000000,,,,,,,,,,,,,,,,,,,,,,,,,,,,
1677472161.852631,1677472162.297293,122.000000,0.000000,4276.282227,4264.230957,4298.846191,4265.128418,4276.666504,4280.897461,4275.384766,4280.512695,4266.025879,4250.769043,4461.410156,4488.077148,4326.538574,4446.410156,6022.000000,4.000000,98.000000,,,,0.000000,4.000000,4.000000,4.000000,4.000000,4.000000,4.000000,4.000000,4.000000,4.000000,4.000000,4.000000,4.000000,4.000000,4.000000,100.000000,,,,,,,,,,,,,,,,,,,,,,,,,,,,
1677472161.860439,1677472162.305201,123.000000,0.000000,4278.205078,4261.282227,4297.179688,4260.769043,4268.846191,4271.922852,4269.230957,4277.051270,4261.666504,4245.769043,4460.256348,4481.025879,4321.922852,4430.256348,6317.000000,4.000000,98.000000,,,,0.000000,4.000000,4.000000,4.000000,4.000000,4.000000,4.000000,4.000000,4.000000,4.000000,4.000000,4.000000,4.000000,4.000000,4.000000,100.000000,,,,,,,,,,,,,,,,,,,,,,,,,,,,
1677472161.868247,1677472162.313009,124.000000,0.000000,4276.410156,4254.102539,4290.769043,4263.205078,4263.333496,4263.589844,4267.307617,4273.974121,4261.025879,4240.512695,4459.358887,4481.025879,4328.974121,4421.922852,5950.000000,4.000000,98.000000,,,,0.000000,4.000000,4.000000,4.000000,4.000000,4.000000,4.000000,4.000000,4.000000,4.000000,4.000000,4.000000,4.000000,4.000000,4.000000,100.000000,,,,,,,,,,,,,,,,,31.000000,0.000000,0.689082,-0.208313,-0.694092,-0.002808,0.957148,-0.322793,0.004883,-113.610947,19.436117,5.818122
1677472161.876055,1677472162.320917,125.000000,0.000000,4266.410156,4247.692383,4283.974121,4259.743652,4261.794922,4265.897461,4268.205078,4276.025879,4261.922852,4229.487305,4458.205078,4483.974121,4326.666504,4429.615234,6658.000000,4.000000,98.000000,,,,0.000000,4.000000,4.000000,4.000000,4.000000,4.000000,4.000000,4.000000,4.000000,4.000000,4.000000,4.000000,4.000000,4.000000,4.000000,100.000000,,,,,,,,,,,,,,,,,,,,,,,,,,,,
1677472161.883863,1677472162.328725,126.000000,0.000000,4264.871582,4247.563965,4285.769043,4258.461426,4263.333496,4276.153809,4272.051270,4282.307617,4270.384766,4237.307617,4457.436035,4483.333496,4320.641113,4429.487305,6022.000000,4.000000,98.000000,,,,0.000000,4.000000,4.000000,4.000000,4.000000,4.000000,4.000000,4.000000,4.000000,4.000000,4.000000,4.000000,4.000000,4.000000,4.000000,100.000000,,,,,,,,,,,,,,,,,,,,,,,,,,,,
1677472161.891671,1677472162.336433,127.000000,0.000000,4271.410156,4250.641113,4290.897461,4263.333496,4265.641113,4279.871582,4274.615234,4285.256348,4276.538574,4253.589844,4460.256348,4485.769043,4327.820313,4432.307617,98.000000,4.000000,98.000000,,,,0.000000,4.000000,4.000000,4.000000,4.000000,4.000000,4.000000,4.000000,4.000000,4.000000,4.000000,4.000000,4.000000,4.000000,4.000000,100.000000,,,,,,,,,,,,,,,,,,,,,,,,,,,,
1677472161.899479,1677472162.344241,0.000000,0.000000,4271.153809,4251.025879,4293.974121,4262.692383,4263.461426,4275.256348,4273.205078,4281.666504,4271.410156,4251.794922,4468.205078,4491.282227,4336.922852,4443.461426,5460.000000,4.000000,98.000000,,,,0.000000,4.000000,4.000000,4.000000,4.000000,4.000000,4.000000,4.000000,4.000000,4.000000,4.000000,4.000000,4.000000,4.000000,4.000000,100.000000,,,,,,,,,,,,,,,,,0.000000,0.000000,0.689212,-0.208496,-0.693909,-0.002563,0.942498,-0.311073,0.012209,-113.599846,19.392506,5.852976
1677472161.907287,1677472162.351949,1.000000,0.000000,4265.897461,4250.128418,4293.333496,4260.128418,4260.256348,4273.205078,4271.282227,4279.615234,4264.102539,4247.948730,4471.794922,4490.512695,4339.871582,4447.820313,4826.000000,4.000000,98.000000,,,,0.000000,4.000000,4.000000,4.000000,4.000000,4.000000,4.000000,4.000000,4.000000,4.000000,4.000000,4.000000,4.000000,4.000000,4.000000,100.000000,,,,,,,,,,,,,,,,,,,,,,,,,,,,
1677472161.915094,1677472162.359757,2.000000,0.000000,4267.307617,4247.436035,4288.846191,4259.230957,4263.205078,4275.769043,4271.666504,4281.922852,4266.666504,4251.153809,4468.461426,4487.820313,4338.077148,4437.692383,5310.000000,4.000000,98.000000,,,,0.000000,4.000000,4.000000,4.000000,4.000000,4.000000,4.000000,4.000000,4.000000,4.000000,4.000000,4.000000,4.000000,4.000000,4.000000,100.000000,,,,,,,,,,,,,,,,,,,,,,,,,,,,
1677472161.922902,1677472162.367465,3.000000,0.000000,4265.128418,4240.000000,4279.615234,4254.102539,4262.692383,4271.025879,4266.922852,4273.846191,4265.256348,4249.102539,4459.358887,4482.436035,4329.871582,4413.589844,5490.000000,4.000000,98.000000,,,,0.000000,4.000000,4.000000,4.000000,4.000000,4.000000,4.000000,4.000000,4.000000,4.000000,4.000000,4.000000,4.000000,4.000000,4.000000,100.000000,,,,,,,,,,,,,,,,,,,,,,,,,,,,
1677472161.930710,1677472162.375273,4.000000,0.000000,4253.589844,4232.563965,4271.666504,4247.692383,4256.282227,4264.871582,4262.436035,4262.948730,4255.769043,4236.538574,4449.871582,4471.666504,4318.589844,4399.743652,4739.000000,4.000000,98.000000,,,,0.000000,4.000000,4.000000,4.000000,4.000000,4.000000,4.000000,4.000000,4.000000,4.000000,4.000000,4.000000,4.000000,4.000000,4.000000,100.000000,,,,,,,,,,,,,,,,,1.000000,0.000000,0.689397,-0.208496,-0.693726,-0.002502,0.946405,-0.307655,0.017092,-113.423195,19.386587,5.851012
1677472161.938518,1677472162.382981,5.000000,0.000000,4245.769043,4230.769043,4269.743652,4246.666504,4251.666504,4268.333496,4261.794922,4261.922852,4250.512695,4226.410156,4445.384766,4462.179688,4311.025879,4408.333496,4924.000000,4.000000,98.000000,,,,0.000000,4.000000,4.000000,4.000000,4.000000,4.000000,4.000000,4.000000,4.000000,4.000000,4.000000,4.000000,4.000000,4.000000,4.000000,100.000000,,,,,,,,,,,,,,,,,,,,,,,,,,,,
1677472161.946326,1677472162.390789,6.000000,0.000000,4247.563965,4231.153809,4272.692383,4248.589844,4253.461426,4271.282227,4265.256348,4264.102539,4250.897461,4237.563965,4446.922852,4465.000000,4309.743652,4412.179688,3894.000000,4.000000,98.000000,,,,0.000000,4.000000,4.000000,4.000000,4.000000,4.000000,4.000000,4.000000,4.000000,4.000000,4.000000,4.000000,4.000000,4.000000,4.000000,100.000000,,,,,,,,,,,,,,,,,,,,,,,,,,,,
1677472161.954134,1677472162.398497,7.000000,0.000000,4250.897461,4230.769043,4276.025879,4248.846191,4257.051270,4267.436035,4266.153809,4264.102539,4250.128418,4253.205078,4448.589844,4468.974121,4310.641113,4405.384766,5073.000000,4.000000,98.000000,,,,0.000000,4.000000,4.000000,4.000000,4.000000,4.000000,4.000000,4.000000,4.000000,4.000000,4.000000,4.000000,4.000000,4.000000,4.000000,100.000000,,,,,,,,,,,,,,,,,,,,,,,,,,,,
1677472161.961942,1677472162.406305,8.000000,0.000000,4247.563965,4232.307617,4276.410156,4249.615234,4255.384766,4265.128418,4263.205078,4262.948730,4249.615234,4243.974121,4446.666504,4464.102539,4310.512695,4409.871582,4986.000000,4.000000,98.000000,,,,0.000000,4.000000,4.000000,4.000000,4.000000,4.000000,4.000000,4.000000,4.000000,4.000000,4.000000,4.000000,4.000000,4.000000,4.000000,100.000000,,,,,,,,,,,,,,,,,2.000000,0.000000,0.689569,-0.208130,-0.693665,-0.002380,0.963497,-0.305213,0.010255,-113.614212,19.281263,6.032578
1677472161.969750,1677472162.414013,9.000000,0.000000,4247.436035,4231.538574,4274.358887,4249.102539,4252.692383,4265.384766,4263.589844,4262.948730,4254.102539,4229.743652,4447.179688,4461.666504,4309.102539,4412.820313,4664.000000,4.000000,98.000000,,,,0.000000,4.000000,4.000000,4.000000,4.000000,4.000000,4.000000,4.000000,4.000000,4.000000,4.000000,4.000000,4.000000,4.000000,4.000000,100.000000,,,,,,,,,,,,,,,,,,,,,,,,,,,,
1677472161.977558,1677472162.421821,10.000000,0.000000,4257.051270,4233.846191,4275.897461,4251.025879,4257.563965,4268.461426,4270.256348,4264.615234,4255.128418,4233.077148,4453.461426,4466.410156,4311.922852,4403.589844,6037.000000,4.000000,98.000000,,,,0.000000,4.000000,4.000000,4.000000,4.000000,4.000000,4.000000,4.000000,4.000000,4.000000,4.000000,4.000000,4.000000,4.000000,4.000000,100.000000,,,,,,,,,,,,,,,,,,,,,,,,,,,,
1677472161.985366,1677472162.429529,11.000000,0.000000,4261.282227,4242.436035,4280.128418,4255.384766,4265.000000,4270.641113,4270.000000,4262.948730,4249.615234,4236.282227,4454.102539,4470.128418,4315.128418,4402.307617,6349.000000,4.000000,98.000000,,,,0.000000,4.000000,4.000000,4.000000,4.000000,4.000000,4.000000,4.000000,4.000000,4.000000,4.000000,4.000000,4.000000,4.000000,4.000000,100.000000,,,,,,,,,,,,,,,,,,,,,,,,,,,,
1677472161.993173,1677472162.437337,12.000000,0.000000,4258.461426,4247.307617,4280.512695,4259.102539,4265.769043,4270.128418,4262.692383,4260.000000,4247.692383,4234.615234,4451.666504,4468.846191,4318.461426,4410.641113,5970.000000,4.000000,98.000000,,,,0.000000,4.000000,4.000000,4.000000,4.000000,4.000000,4.000000,4.000000,4.000000,4.000000,4.000000,4.000000,4.000000,4.000000,4.000000,100.000000,1.000000,100.000000,4.000000,4.000000,4.000000,4.000000,4.000000,4.000000,4.000000,4.000000,4.000000,4.000000,4.000000,4.000000,4.000000,4.000000,3.000000,0.000000,0.689723,-0.207825,-0.693604,-0.002197,0.952753,-0.297888,0.008302,-113.586121,19.353136,5.979320
1677472162.000981,1677472162.445045,13.000000,0.000000,4260.000000,4249.230957,4280.769043,4262.051270,4266.794922,4273.077148,4262.179688,4261.666504,4250.512695,4234.487305,4453.717773,4469.358887,4321.025879,4413.205078,6668.000000,4.000000,98.000000,,,,0.000000,4.000000,4.000000,4.000000,4.000000,4.000000,4.000000,4.000000,4.000000,4.000000,4.000000,4.000000,4.000000,4.000000,4.000000,100.000000,,,,,,,,,,,,,,,,,,,,,,,,,,,,
1677472162.008789,1677472162.452953,14.000000,0.000000,4258.717773,4248.333496,4278.589844,4259.743652,4265.000000,4272.436035,4265.128418,4258.717773,4252.307617,4233.333496,4451.922852,4467.563965,4318.077148,4408.461426,6037.000000,4.000000,98.000000,,,,0.000000,4.000000,4.000000,4.000000,4.000000,4.000000,4.000000,4.000000,4.000000,4.000000,4.000000,4.000000,4.000000,4.000000,4.000000,100.000000,,,,,,,,,,,,,,,,,,,,,,,,,,,,
1677472162.016597,1677472162.460761,15.000000,0.000000,4244.487305,4237.820313,4268.846191,4249.487305,4251.153809,4261.410156,4259.487305,4249.230957,4247.563965,4233.205078,4441.922852,4454.871582,4310.000000,4400.897461,6349.000000,4.000000,98.000000,,,,0.000000,4.000000,4.000000,4.000000,4.000000,4.000000,4.000000,4.000000,4.000000,4.000000,4.000000,4.000000,4.000000,4.000000,4.000000,100.000000,,,,,,,,,,,,,,,,,,,,,,,,,,,,
1677472162.024405,1677472162.468669,16.000000,0.000000,4240.256348,4228.974121,4264.743652,4245.128418,4247.563965,4257.948730,4251.025879,4246.025879,4243.333496,4233.589844,4440.256348,4451.153809,4305.384766,4394.358887,0.000000,4.000000,98.000000,,,,0.000000,4.000000,4.000000,4.000000,4.000000,4.000000,4.000000,4.000000,4.000000,4.000000,4.000000,4.000000,4.000000,4.000000,4.000000,100.000000,,,,,,,,,,,,,,,,,4.000000,0.000000,0.689754,-0.207520,-0.693665,-0.002075,0.956171,-0.316445,0.005372,-113.610847,19.267822,5.914721
1677472162.032213,1677472162.476477,17.000000,0.000000,4253.205078,4236.922852,4274.358887,4255.641113,4260.512695,4264.230957,4255.512695,4249.230957,4245.512695,4233.461426,4447.692383,4463.333496,4311.282227,4401.794922,0.000000,4.000000,98.000000,,,,0.000000,4.000000,4.000000,4.000000,4.000000,4.000000,4.000000,4.000000,4.000000,4.000000,4.000000,4.000000,4.000000,4.000000,4.000000,100.000000,,,,,,,,,,,,,,,,,,,,,,,,,,,,
1677472162.040021,1677472162.484385,18.000000,0.000000,4257.051270,4245.641113,4277.307617,4263.333496,4265.641113,4264.358887,4260.512695,4248.333496,4247.051270,4235.897461,4446.282227,4466.025879,4318.974121,4412.563965,0.000000,4.000000,98.000000,,,,0.000000,4.000000,4.000000,4.000000,4.000000,4.000000,4.000000,4.000000,4.000000,4.000000,4.000000,4.000000,4.000000,4.000000,4.000000,100.000000,,,,,,,,,,,,,,,,,,,,,,,,,,,,
1677472162.047829,1677472162.492193,19.000000,0.000000,4254.102539,4245.641113,4274.230957,4260.128418,4262.692383,4260.641113,4258.846191,4245.512695,4243.717773,4244.487305,4446.153809,4459.615234,4319.871582,4401.410156,0.000000,4.000000,98.000000,,,,0.000000,4.000000,4.000000,4.000000,4.000000,4.000000,4.000000,4.000000,4.000000,4.000000,4.000000,4.000000,4.000000,4.000000,4.000000,100.000000,,,,,,,,,,,,,,,,,,,,,,,,,,,,
1677472162.055637,1677472162.500100,20.000000,0.000000,4259.615234,4248.205078,4277.051270,4261.410156,4269.871582,4264.358887,4259.615234,4251.410156,4244.230957,4245.769043,4455.897461,4465.000000,4321.794922,4396.153809,0.000000,4.000000,98.000000,,,,0.000000,4.000000,4.000000,4.000000,4.000000,4.000000,4.000000,4.000000,4.000000,4.000000,4.000000,4.000000,4.000000,4.000000,4.000000,100.000000,,,,,,,,,,,,,,,,,5.000000,0.000000,0.689718,-0.207031,-0.693848,-0.001709,0.949335,-0.312538,0.016604,-113.599762,19.307707,5.856582
1677472162.063444,1677472162.507908,21.000000,0.000000,4263.333496,4247.563965,4281.025879,4265.641113,4274.487305,4267.436035,4263.974121,4259.871582,4248.717773,4239.230957,4462.307617,4474.615234,4328.077148,4418.846191,0.000000,4.000000,98.000000,,,,0.000000,4.000000,4.000000,4.000000,4.000000,4.000000,4.000000,4.000000,4.000000,4.000000,4.000000,4.000000,4.000000,4.000000,4.000000,100.000000,,,,,,,,,,,,,,,,,,,,,,,,,,,,
1677472162.071252,1677472162.515816,22.000000,0.000000,4256.153809,4247.307617,4282.563965,4260.897461,4267.948730,4265.384766,4261.282227,4255.256348,4249.358887,4240.897461,4457.436035,4469.487305,4330.256348,4429.871582,0.000000,4.000000,98.000000,,,,0.000000,4.000000,4.000000,4.000000,4.000000,4.000000,4.000000,4.000000,4.000000,4.000000,4.000000,4.000000,4.000000,4.000000,4.000000,100.000000,,,,,,,,,,,,,,,,,,,,,,,,,,,,
1677472162.079060,1677472162.523624,23.000000,0.000000,4249.102539,4246.025879,4278.974121,4251.666504,4263.205078,4261.666504,4256.666504,4249.102539,4247.436035,4249.230957,4450.128418,4460.128418,4323.333496,4413.846191,0.000000,4.000000,98.000000,,,,0.000000,4.000000,4.000000,4.000000,4.000000,4.000000,4.000000,4.000000,4.000000,4.000000,4.000000,4.000000,4.000000,4.000000,4.000000,100.000000,,,,,,,,,,,,,,,,,,,,,,,,,,,,
1677472162.086868,1677472162.531432,24.000000,0.000000,4245.000000,4225.000000,4270.769043,4246.666504,4261.794922,4264.615234,4258.333496,4259.487305,4249.743652,4249.102539,4448.205078,4456.666504,4309.487305,4397.563965,0.000000,4.000000,98.000000,,,,0.000000,4.000000,4.000000,4.000000,4.000000,4.000000,4.000000,4.000000,4.000000,4.000000,4.000000,4.000000,4.000000,4.000000,4.000000,100.000000,,,,,,,,,,,,,,,,,6.000000,0.000000,0.689656,-0.206421,-0.694092,-0.001465,0.962520,-0.303748,0.009278,-113.523117,19.293604,5.820924
1677472162.094676,1677472162.539240,25.000000,0.000000,4244.230957,4216.538574,4268.333496,4250.128418,4263.333496,4267.563965,4261.666504,4265.000000,4251.666504,4239.358887,4445.256348,4458.589844,4301.794922,4388.077148,0.000000,4.000000,98.000000,,,,0.000000,4.000000,4.000000,4.000000,4.000000,4.000000,4.000000,4.000000,4.000000,4.000000,4.000000,4.000000,4.000000,4.000000,4.000000,100.000000,,,,,,,,,,,,,,,,,,,,,,,,,,,,
1677472162.102484,1677472162.546948,26.000000,0.000000,4248.205078,4249.102539,4268.461426,4261.538574,4266.922852,4263.077148,4258.589844,4251.153809,4248.333496,4234.615234,4440.769043,4456.410156,4309.871582,4392.820313,0.000000,4.000000,98.000000,,,,0.000000,4.000000,4.000000,4.000000,4.000000,4.000000,4.000000,4.000000,4.000000,4.000000,4.000000,4.000000,4.000000,4.000000,4.000000,100.000000,,,,,,,,,,,,,,,,,,,,,,,,,,,,
1677472162.110292,1677472162.554756,27.000000,0.000000,4241.666504,4270.641113,4260.641113,4265.256348,4264.615234,4260.769043,4255.641113,4242.436035,4244.871582,4232.563965,4432.820313,4443.333496,4305.641113,4396.794922,0.000000,4.000000,98.000000,,,,0.000000,4.000000,4.000000,4.000000,4.000000,4.000000,4.000000,4.000000,4.000000,4.000000,4.000000,4.000000,4.000000,4.000000,4.000000,100.000000,,,,,,,,,,,,,,,,,,,,,,,,,,,,
1677472162.118100,1677472162.562464,28.000000,0.000000,4229.871582,4259.102539,4255.897461,4259.871582,4262.179688,4265.641113,4261.410156,4248.205078,4247.563965,4231.410156,4427.820313,4436.922852,4279.743652,4371.922852,0.000000,4.000000,98.000000,,,,0.000000,4.000000,4.000000,4.000000,4.000000,4.000000,4.000000,4.000000,4.000000,4.000000,4.000000,4.000000,4.000000,4.000000,4.000000,100.000000,,,,,,,,,,,,,,,,,7.000000,0.000000,0.689495,-0.205933,-0.694397,-0.000977,0.952265,-0.313026,0.009278,-113.587471,19.147575,5.722165
1677472162.125908,1677472162.570272,29.000000,0.000000,4231.410156,4258.461426,4258.846191,4260.256348,4266.282227,4266.538574,4265.384766,4255.641113,4251.666504,4233.717773,4432.307617,4442.051270,4273.205078,4354.230957,0.000000,4.000000,98.000000,,,,0.000000,4.000000,4.000000,4.000000,4.000000,4.000000,4.000000,4.000000,4.000000,4.000000,4.000000,4.000000,4.000000,4.000000,4.000000,100.000000,,,,,,,,,,,,,,,,,,,,,,,,,,,,
1677472162.133715,1677472162.577980,30.000000,0.000000,4231.025879,4265.897461,4253.077148,4260.128418,4264.487305,4261.282227,4256.282227,4252.692383,4248.974121,4230.641113,4435.897461,4441.410156,4290.256348,4372.692383,0.000000,4.000000,98.000000,,,,0.000000,4.000000,4.000000,4.000000,4.000000,4.000000,4.000000,4.000000,4.000000,4.000000,4.000000,4.000000,4.000000,4.000000,4.000000,100.000000,,,,,,,,,,,,,,,,,,,,,,,,,,,,
1677472162.141523,1677472162.585788,31.000000,0.000000,4216.538574,4255.641113,4244.487305,4250.000000,4258.333496,4259.743652,4252.563965,4248.461426,4245.384766,4227.820313,4429.487305,4434.743652,4291.410156,4373.077148,0.000000,4.000000,98.000000,,,,0.000000,4.000000,4.000000,4.000000,4.000000,4.000000,4.000000,4.000000,4.000000,4.000000,4.000000,4.000000,4.000000,4.000000,4.000000,100.000000,,,,,,,,,,,,,,,,,,,,,,,,,,,,
1677472162.149331,1677472162.593496,32.000000,0.000000,4211.153809,4246.538574,4248.333496,4245.769043,4261.025879,4265.641113,4259.102539,4255.256348,4246.666504,4230.897461,4425.128418,4436.666504,4280.769043,4344.230957,0.000000,4.000000,98.000000,,,,0.000000,4.000000,4.000000,4.000000,4.000000,4.000000,4.000000,4.000000,4.000000,4.000000,4.000000,4.000000,4.000000,4.000000,4.000000,100.000000,,,,,,,,,,,,,,,,,8.000000,0.000000,0.689070,-0.205505,-0.694946,-0.000122,0.956660,-0.307655,0.009278,-113.595390,19.099485,5.666615
1677472162.157139,1677472162.601304,33.000000,0.000000,4218.717773,4248.589844,4253.589844,4251.153809,4266.794922,4265.897461,4253.974121,4255.641113,4245.128418,4230.256348,4426.794922,4440.128418,4275.512695,4336.922852,0.000000,4.000000,98.000000,,,,0.000000,4.000000,4.000000,4.000000,4.000000,4.000000,4.000000,4.000000,4.000000,4.000000,4.000000,4.000000,4.000000,4.000000,4.000000,100.000000,,,,,,,,,,,,,,,,,,,,,,,,,,,,
1677472162.164947,1677472162.609012,34.000000,0.000000,4220.128418,4250.384766,4246.153809,4251.153809,4263.077148,4258.717773,4244.102539,4243.077148,4235.000000,4221.538574,4418.589844,4433.333496,4269.615234,4351.666504,0.000000,4.000000,98.000000,,,,0.000000,4.000000,4.000000,4.000000,4.000000,4.000000,4.000000,4.000000,4.000000,4.000000,4.000000,4.000000,4.000000,4.000000,4.000000,100.000000,,,,,,,,,,,,,,,,,,,,,,,,,,,,
1677472162.172755,1677472162.616820,35.000000,0.000000,4212.948730,4245.384766,4235.769043,4245.769043,4257.692383,4256.794922,4247.820313,4241.666504,4230.769043,4213.974121,4411.282227,4424.871582,4268.333496,4356.794922,0.000000,4.000000,98.000000,,,,0.000000,4.000000,4.000000,4.000000,4.000000,4.000000,4.000000,4.000000,4.000000,4.000000,4.000000,4.000000,4.000000,4.000000,4.000000,100.000000,,,,,,,,,,,,,,,,,,,,,,,,,,,,
1677472162.180563,1677472162.624528,36.000000,0.000000,4205.512695,4237.307617,4238.846191,4244.102539,4261.794922,4262.948730,4257.307617,4254.487305,4240.641113,4217.820313,4422.692383,4427.307617,4275.256348,4348.461426,0.000000,4.000000,98.000000,,,,0.000000,4.000000,4.000000,4.000000,4.000000,4.000000,4.000000,4.000000,4.000000,4.000000,4.000000,4.000000,4.000000,4.000000,4.000000,100.000000,,,,,,,,,,,,,,,,,9.000000,0.000000,0.688646,-0.204651,-0.695618,0.000427,0.942986,-0.322793,0.002930,-113.569183,19.056204,5.533287
1677472162.188371,1677472162.632336,37.000000,0.000000,4202.179688,4234.358887,4242.563965,4238.717773,4261.025879,4265.641113,4257.051270,4260.512695,4247.179688,4226.153809,4431.922852,4436.282227,4278.589844,4345.000000,0.000000,4.000000,98.000000,,,,0.000000,4.000000,4.000000,4.000000,4.000000,4.000000,4.000000,4.000000,4.000000,4.000000,4.000000,4.000000,4.000000,4.000000,4.000000,100.000000,,,,,,,,,,,,,,,,,,,,,,,,,,,,
1677472162.196179,1677472162.640144,38.000000,0.000000,4207.692383,4233.077148,4241.025879,4235.641113,4249.102539,4264.102539,4260.512695,4262.820313,4245.769043,4229.743652,4432.820313,4446.410156,4282.051270,4360.000000,0.000000,4.000000,98.000000,,,,0.000000,4.000000,4.000000,4.000000,4.000000,4.000000,4.000000,4.000000,4.000000,4.000000,4.000000,4.000000,4.000000,4.000000,4.000000,100.000000,,,,,,,,,,,,,,,,,,,,,,,,,,,,
1677472162.203987,1677472162.647952,39.000000,0.000000,4213.333496,4231.410156,4245.641113,4243.205078,4249.871582,4264.743652,4268.974121,4271.794922,4249.615234,4232.820313,4442.051270,4453.974121,4296.282227,4377.563965,0.000000,4.000000,98.000000,,,,0.000000,4.000000,4.000000,4.000000,4.000000,4.000000,4.000000,4.000000,4.000000,4.000000,4.000000,4.000000,4.000000,4.000000,4.000000,100.000000,,,,,,,,,,,,,,,,,,,,,,,,,,,,
1677472162.211794,1677472162.655760,40.000000,0.000000,4205.384766,4231.410156,4249.871582,4246.922852,4262.051270,4264.615234,4269.358887,4275.128418,4252.692383,4231.153809,4445.641113,4451.282227,4297.436035,4367.051270,0.000000,4.000000,98.000000,,,,0.000000,4.000000,4.000000,4.000000,4.000000,4.000000,4.000000,4.000000,4.000000,4.000000,4.000000,4.000000,4.000000,4.000000,4.000000,100.000000,,,,,,,,,,,,,,,,,10.000000,0.000000,0.688363,-0.203735,-0.696167,0.000610,0.948358,-0.321817,0.020999,-113.545601,19.100582,5.496625
1677472162.219602,1677472162.663568,41.000000,0.000000,4197.820313,4231.794922,4243.717773,4243.589844,4265.000000,4264.230957,4264.487305,4269.230957,4245.512695,4226.282227,4434.358887,4441.538574,4284.487305,4351.794922,0.000000,4.000000,98.000000,,,,0.000000,4.000000,4.000000,4.000000,4.000000,4.000000,4.000000,4.000000,4.000000,4.000000,4.000000,4.000000,4.000000,4.000000,4.000000,100.000000,,,,,,,,,,,,,,,,,,,,,,,,,,,,
1677472162.227410,1677472162.671376,42.000000,0.000000,4203.589844,4229.358887,4238.974121,4246.282227,4259.358887,4265.128418,4264.102539,4266.666504,4245.769043,4225.384766,4428.333496,4438.717773,4279.102539,4354.102539,0.000000,4.000000,98.000000,,,,0.000000,4.000000,4.000000,4.000000,4.000000,4.000000,4.000000,4.000000,4.000000,4.000000,4.000000,4.000000,4.000000,4.000000,4.000000,100.000000,,,,,,,,,,,,,,,,,,,,,,,,,,,,
1677472162.235218,1677472162.679184,43.000000,0.000000,4201.922852,4220.769043,4240.512695,4244.358887,4253.077148,4262.948730,4259.230957,4266.025879,4248.846191,4225.641113,4424.871582,4437.692383,4272.820313,4340.000000,0.000000,4.000000,98.000000,,,,0.000000,4.000000,4.000000,4.000000,4.000000,4.000000,4.000000,4.000000,4.000000,4.000000,4.000000,4.000000,4.000000,4.000000,4.000000,100.000000,,,,,,,,,,,,,,,,,,,,,,,,,,,,
1677472162.243026,1677472162.686992,44.000000,0.000000,4183.333496,4205.897461,4234.487305,4231.794922,4245.641113,4261.153809,4249.615234,4258.589844,4237.436035,4214.871582,4410.897461,4426.794922,4257.563965,4321.282227,0.000000,4.000000,98.000000,,,,0.000000,4.000000,4.000000,4.000000,4.000000,4.000000,4.000000,4.000000,4.000000,4.000000,4.000000,4.000000,4.000000,4.000000,4.000000,100.000000,,,,,,,,,,,,,,,,,11.000000,0.000000,0.688216,-0.203186,-0.696472,0.000610,0.951288,-0.314003,0.009767,-113.541039,19.090525,5.530296
1677472162.250834,1677472162.694800,45.000000,0.000000,4179.743652,4205.128418,4226.922852,4230.128418,4245.384766,4263.461426,4250.128418,4255.769043,4234.487305,4204.230957,4409.871582,4420.641113,4257.436035,4338.974121,0.000000,4.000000,98.000000,,,,0.000000,4.000000,4.000000,4.000000,4.000000,4.000000,4.000000,4.000000,4.000000,4.000000,4.000000,4.000000,4.000000,4.000000,4.000000,100.000000,,,,,,,,,,,,,,,,,,,,,,,,,,,,
1677472162.258642,1677472162.702708,46.000000,0.000000,4194.743652,4212.179688,4230.384766,4234.358887,4243.846191,4262.820313,4256.025879,4262.179688,4247.436035,4209.871582,4423.589844,4428.077148,4269.615234,4361.794922,0.000000,4.000000,98.000000,,,,0.000000,4.000000,4.000000,4.000000,4.000000,4.000000,4.000000,4.000000,4.000000,4.000000,4.000000,4.000000,4.000000,4.000000,4.000000,100.000000,,,,,,,,,,,,,,,,,,,,,,,,,,,,
1677472162.266450,1677472162.710616,47.000000,0.000000,4199.102539,4206.282227,4236.282227,4227.820313,4232.051270,4258.974121,4260.641113,4260.256348,4249.230957,4224.871582,4429.102539,4435.512695,4270.512695,4351.666504,0.000000,4.000000,98.000000,,,,0.000000,4.000000,4.000000,4.000000,4.000000,4.000000,4.000000,4.000000,4.000000,4.000000,4.000000,4.000000,4.000000,4.000000,4.000000,100.000000,,,,,,,,,,,,,,,,,,,,,,,,,,,,
1677472162.274258,1677472162.718424,48.000000,0.000000,4196.025879,4203.461426,4241.538574,4225.897461,4232.948730,4260.897461,4263.333496,4256.410156,4245.256348,4236.538574,4427.948730,4439.102539,4274.230957,4346.794922,0.000000,4.000000,98.000000,,,,0.000000,4.000000,4.000000,4.000000,4.000000,4.000000,4.000000,4.000000,4.000000,4.000000,4.000000,4.000000,4.000000,4.000000,4.000000,100.000000,,,,,,,,,,,,,,,,,12.000000,0.000000,0.687876,-0.202454,-0.697021,0.000671,0.940056,-0.323282,0.014650,-113.703606,19.231472,5.310600
1677472162.282065,1677472162.726332,49.000000,0.000000,4200.512695,4212.948730,4250.128418,4235.384766,4245.897461,4263.717773,4263.461426,4259.230957,4250.641113,4232.820313,4427.820313,4446.153809,4284.487305,4351.282227,0.000000,4.000000,98.000000,,,,0.000000,4.000000,4.000000,4.000000,4.000000,4.000000,4.000000,4.000000,4.000000,4.000000,4.000000,4.000000,4.000000,4.000000,4.000000,100.000000,,,,,,,,,,,,,,,,,,,,,,,,,,,,
1677472162.289873,1677472162.734140,50.000000,0.000000,4205.128418,4219.487305,4253.974121,4238.333496,4248.589844,4260.256348,4262.692383,4258.974121,4251.410156,4226.922852,4429.743652,4448.974121,4282.563965,4345.769043,0.000000,4.000000,98.000000,,,,0.000000,4.000000,4.000000,4.000000,4.000000,4.000000,4.000000,4.000000,4.000000,4.000000,4.000000,4.000000,4.000000,4.000000,4.000000,100.000000,,,,,,,,,,,,,,,,,,,,,,,,,,,,
1677472162.297681,1677472162.742048,51.000000,0.000000,4200.256348,4215.641113,4249.102539,4234.358887,4246.794922,4259.615234,4264.615234,4256.153809,4247.051270,4230.512695,4427.563965,4438.717773,4268.461426,4345.384766,0.000000,4.000000,98.000000,,,,0.000000,4.000000,4.000000,4.000000,4.000000,4.000000,4.000000,4.000000,4.000000,4.000000,4.000000,4.000000,4.000000,4.000000,4.000000,100.000000,,,,,,,,,,,,,,,,,,,,,,,,,,,,
1677472162.305489,1677472162.749856,52.000000,0.000000,4188.205078,4205.512695,4238.461426,4230.128418,4246.666504,4261.666504,4257.820313,4253.846191,4244.615234,4225.769043,4415.897461,4423.717773,4257.563965,4340.769043,0.000000,4.000000,98.000000,,,,0.000000,4.000000,4.000000,4.000000,4.000000,4.000000,4.000000,4.000000,4.000000,4.000000,4.000000,4.000000,4.000000,4.000000,4.000000,100.000000,,,,,,,,,,,,,,,,,13.000000,0.000000,0.687392,-0.201782,-0.697693,0.000793,0.960078,-0.319863,0.009767,-113.616577,19.308325,5.412873
1677472162.313297,1677472162.757564,53.000000,0.000000,4176.282227,4196.153809,4223.077148,4223.333496,4243.333496,4253.205078,4247.179688,4245.512695,4234.358887,4207.563965,4401.538574,4412.820313,4250.384766,4327.179688,0.000000,4.000000,98.000000,,,,0.000000,4.000000,4.000000,4.000000,4.000000,4.000000,4.000000,4.000000,4.000000,4.000000,4.000000,4.000000,4.000000,4.000000,4.000000,100.000000,,,,,,,,,,,,,,,,,,,,,,,,,,,,
1677472162.321105,1677472162.765472,54.000000,0.000000,4158.589844,4180.897461,4205.641113,4213.717773,4238.589844,4246.282227,4247.051270,4237.948730,4224.230957,4193.333496,4386.666504,4399.615234,4226.153809,4300.000000,0.000000,4.000000,98.000000,,,,0.000000,4.000000,4.000000,4.000000,4.000000,4.000000,4.000000,4.000000,4.000000,4.000000,4.000000,4.000000,4.000000,4.000000,4.000000,100.000000,,,,,,,,,,,,,,,,,,,,,,,,,,,,
1677472162.328913,1677472162.773279,55.000000,0.000000,4152.948730,4170.384766,4204.871582,4214.871582,4237.692383,4255.128418,4254.358887,4246.410156,4232.179688,4207.051270,4391.666504,4397.692383,4220.641113,4282.307617,0.000000,4.000000,98.000000,,,,0.000000,4.000000,4.000000,4.000000,4.000000,4.000000,4.000000,4.000000,4.000000,4.000000,4.000000,4.000000,4.000000,4.000000,4.000000,100.000000,,,,,,,,,,,,,,,,,,,,,,,,,,,,
1677472162.336721,1677472162.781187,56.000000,0.000000,4178.717773,4191.794922,4222.820313,4229.230957,4243.077148,4264.871582,4259.358887,4260.769043,4251.922852,4237.436035,4426.282227,4419.743652,4272.563965,4320.000000,0.000000,4.000000,98.000000,,,,0.000000,4.000000,4.000000,4.000000,4.000000,4.000000,4.000000,4.000000,4.000000,4.000000,4.000000,4.000000,4.000000,4.000000,4.000000,100.000000,,,,,,,,,,,,,,,,,14.000000,0.000000,0.687146,-0.200928,-0.698181,0.001160,0.950311,-0.314003,0.001953,-113.638252,19.277493,5.288252
1677472162.344529,1677472162.788995,57.000000,0.000000,4206.666504,4217.051270,4242.051270,4237.820313,4250.897461,4262.948730,4264.743652,4271.410156,4264.743652,4249.615234,4455.128418,4447.563965,4327.051270,4381.410156,0.000000,4.000000,98.000000,,,,0.000000,4.000000,4.000000,4.000000,4.000000,4.000000,4.000000,4.000000,4.000000,4.000000,4.000000,4.000000,4.000000,4.000000,4.000000,100.000000,,,,,,,,,,,,,,,,,,,,,,,,,,,,
1677472162.352336,1677472162.796903,58.000000,0.000000,4207.692383,4202.051270,4249.743652,4234.102539,4249.615234,4259.487305,4265.897461,4276.025879,4266.410156,4246.666504,4453.205078,4454.615234,4331.922852,4390.897461,0.000000,4.000000,98.000000,,,,0.000000,4.000000,4.000000,4.000000,4.000000,4.000000,4.000000,4.000000,4.000000,4.000000,4.000000,4.000000,4.000000,4.000000,4.000000,100.000000,,,,,,,,,,,,,,,,,,,,,,,,,,,,
1677472162.360144,1677472162.804711,59.000000,0.000000,4200.128418,4180.384766,4246.282227,4229.487305,4244.615234,4258.589844,4258.717773,4266.282227,4257.563965,4244.743652,4445.000000,4443.461426,4320.128418,4369.358887,0.000000,4.000000,98.000000,,,,0.000000,4.000000,4.000000,4.000000,4.000000,4.000000,4.000000,4.000000,4.000000,4.000000,4.000000,4.000000,4.000000,4.000000,4.000000,100.000000,,,,,,,,,,,,,,,,,,,,,,,,,,,,
1677472162.367952,1677472162.812519,60.000000,0.000000,4203.333496,4185.384766,4242.436035,4230.256348,4245.641113,4257.436035,4255.000000,4252.307617,4245.512695,4235.256348,4443.974121,4436.025879,4322.179688,4375.512695,0.000000,4.000000,98.000000,,,,0.000000,4.000000,4.000000,4.000000,4.000000,4.000000,4.000000,4.000000,4.000000,4.000000,4.000000,4.000000,4.000000,4.000000,4.000000,100.000000,,,,,,,,,,,,,,,,,15.000000,0.000000,0.687138,-0.199890,-0.698486,0.001221,0.937614,-0.294958,0.005372,-113.557762,19.383076,5.192760
1677472162.375760,1677472162.820227,61.000000,0.000000,4211.282227,4191.025879,4249.871582,4233.846191,4248.846191,4262.179688,4261.666504,4257.436035,4249.615234,4230.000000,4445.641113,4445.769043,4328.717773,4381.666504,0.000000,4.000000,98.000000,,,,0.000000,4.000000,4.000000,4.000000,4.000000,4.000000,4.000000,4.000000,4.000000,4.000000,4.000000,4.000000,4.000000,4.000000,4.000000,100.000000,,,,,,,,,,,,,,,,,,,,,,,,,,,,
1677472162.383568,1677472162.828135,62.000000,0.000000,4216.153809,4188.461426,4256.666504,4238.717773,4251.922852,4265.512695,4263.974121,4269.358887,4261.282227,4241.410156,4448.333496,4454.102539,4331.282227,4377.179688,0.000000,4.000000,98.000000,,,,0.000000,4.000000,4.000000,4.000000,4.000000,4.000000,4.000000,4.000000,4.000000,4.000000,4.000000,4.000000,4.000000,4.000000,4.000000,100.000000,,,,,,,,,,,,,,,,,,,,,,,,,,,,
1677472162.391376,1677472162.835943,63.000000,0.000000,4207.051270,4183.077148,4245.512695,4236.666504,4250.000000,4257.948730,4255.384766,4257.820313,4250.512695,4237.436035,4436.410156,4438.461426,4317.307617,4373.717773,0.000000,4.000000,98.000000,,,,0.000000,4.000000,4.000000,4.000000,4.000000,4.000000,4.000000,4.000000,4.000000,4.000000,4.000000,4.000000,4.000000,4.000000,4.000000,100.000000,,,,,,,,,,,,,,,,,,,,,,,,,,,,
1677472162.399184,1677472162.843851,64.000000,0.000000,4195.641113,4178.077148,4235.128418,4231.153809,4243.717773,4255.128418,4253.589844,4235.897461,4229.102539,4215.384766,4422.820313,4421.153809,4302.307617,4361.666504,5465.000000,4.000000,98.000000,,,,0.000000,4.000000,4.000000,4.000000,4.000000,4.000000,4.000000,4.000000,4.000000,4.000000,4.000000,4.000000,4.000000,4.000000,4.000000,100.000000,,,,,,,,,,,,,,,,,16.000000,0.000000,0.687093,-0.198975,-0.698792,0.001709,0.945428,-0.317422,0.007325,-113.768654,19.344769,5.290151
1677472162.406992,1677472162.851659,65.000000,0.000000,4197.948730,4180.512695,4235.641113,4231.666504,4246.282227,4262.179688,4258.589844,4230.512695,4227.051270,4213.461426,4424.871582,4420.384766,4303.461426,4348.077148,4827.000000,4.000000,98.000000,,,,0.000000,4.000000,4.000000,4.000000,4.000000,4.000000,4.000000,4.000000,4.000000,4.000000,4.000000,4.000000,4.000000,4.000000,4.000000,100.000000,,,,,,,,,,,,,,,,,,,,,,,,,,,,
1677472162.414800,1677472162.859567,66.000000,0.000000,4198.333496,4181.025879,4233.077148,4230.641113,4253.205078,4264.230957,4261.410156,4238.974121,4237.051270,4226.282227,4425.512695,4422.307617,4302.692383,4345.384766,5318.000000,4.000000,98.000000,,,,0.000000,4.000000,4.000000,4.000000,4.000000,4.000000,4.000000,4.000000,4.000000,4.000000,4.000000,4.000000,4.000000,4.000000,4.000000,100.000000,,,,,,,,,,,,,,,,,,,,,,,,,,,,
1677472162.422607,1677472162.867375,67.000000,0.000000,4200.384766,4181.538574,4233.846191,4230.769043,4252.563965,4263.461426,4262.051270,4249.487305,4244.871582,4232.179688,4427.051270,4427.692383,4303.717773,4358.717773,5492.000000,4.000000,98.000000,,,,0.000000,4.000000,4.000000,4.000000,4.000000,4.000000,4.000000,4.000000,4.000000,4.000000,4.000000,4.000000,4.000000,4.000000,4.000000,100.000000,,,,,,,,,,,,,,,,,,,,,,,,,,,,
1677472162.430415,1677472162.875283,68.000000,0.000000,4205.897461,4185.641113,4240.897461,4233.077148,4244.615234,4260.384766,4259.743652,4254.487305,4248.717773,4232.307617,4434.615234,4435.769043,4311.794922,4370.384766,4731.000000,4.000000,98.000000,,,,0.000000,4.000000,4.000000,4.000000,4.000000,4.000000,4.000000,4.000000,4.000000,4.000000,4.000000,4.000000,4.000000,4.000000,4.000000,100.000000,,,,,,,,,,,,,,,,,17.000000,0.000000,0.687142,-0.197510,-0.699158,0.002136,0.952265,-0.311561,0.005372,-113.775116,19.226959,5.061136
1677472162.438223,1677472162.883091,69.000000,0.000000,4204.615234,4184.230957,4243.717773,4230.256348,4242.307617,4251.922852,4256.666504,4251.538574,4247.051270,4230.384766,4435.769043,4436.025879,4313.974121,4368.974121,4928.000000,4.000000,98.000000,,,,0.000000,4.000000,4.000000,4.000000,4.000000,4.000000,4.000000,4.000000,4.000000,4.000000,4.000000,4.000000,4.000000,4.000000,4.000000,100.000000,,,,,,,,,,,,,,,,,,,,,,,,,,,,
1677472162.446031,1677472162.890998,70.000000,0.000000,4209.743652,4188.461426,4253.589844,4237.436035,4248.077148,4253.974121,4266.153809,4257.563965,4247.179688,4231.410156,4435.769043,4443.333496,4316.666504,4373.589844,3897.000000,4.000000,98.000000,,,,0.000000,4.000000,4.000000,4.000000,4.000000,4.000000,4.000000,4.000000,4.000000,4.000000,4.000000,4.000000,4.000000,4.000000,4.000000,100.000000,,,,,,,,,,,,,,,,,,,,,,,,,,,,
1677472162.453839,1677472162.898806,71.000000,0.000000,4221.922852,4197.436035,4263.461426,4247.948730,4246.410156,4265.897461,4274.615234,4264.358887,4251.410156,4235.769043,4441.538574,4456.410156,4321.153809,4377.948730,5073.000000,4.000000,98.000000,,,,0.000000,4.000000,4.000000,4.000000,4.000000,4.000000,4.000000,4.000000,4.000000,4.000000,4.000000,4.000000,4.000000,4.000000,4.000000,100.000000,,,,,,,,,,,,,,,,,,,,,,,,,,,,
1677472162.461647,1677472162.906514,72.000000,0.000000,4219.487305,4193.846191,4257.051270,4240.384766,4245.769043,4266.666504,4268.333496,4257.051270,4249.230957,4232.307617,4443.846191,4454.230957,4316.153809,4364.615234,4984.000000,4.000000,98.000000,,,,0.000000,4.000000,4.000000,4.000000,4.000000,4.000000,4.000000,4.000000,4.000000,4.000000,4.000000,4.000000,4.000000,4.000000,4.000000,100.000000,,,,,,,,,,,,,,,,,18.000000,0.000000,0.687165,-0.196777,-0.699341,0.002197,0.957636,-0.328653,-0.004395,-113.780937,19.270929,5.088356
1677472162.469455,1677472162.914322,73.000000,0.000000,4207.563965,4188.205078,4251.153809,4231.922852,4255.128418,4263.589844,4262.179688,4248.717773,4244.487305,4226.025879,4438.461426,4441.666504,4311.666504,4357.436035,4649.000000,4.000000,98.000000,,,,0.000000,4.000000,4.000000,4.000000,4.000000,4.000000,4.000000,4.000000,4.000000,4.000000,4.000000,4.000000,4.000000,4.000000,4.000000,100.000000,,,,,,,,,,,,,,,,,,,,,,,,,,,,
1677472162.477263,1677472162.922030,74.000000,0.000000,4207.820313,4195.769043,4252.948730,4243.717773,4256.922852,4266.666504,4264.358887,4249.615234,4245.641113,4226.794922,4433.205078,4438.974121,4313.717773,4369.615234,6040.000000,4.000000,98.000000,,,,0.000000,4.000000,4.000000,4.000000,4.000000,4.000000,4.000000,4.000000,4.000000,4.000000,4.000000,4.000000,4.000000,4.000000,4.000000,100.000000,,,,,,,,,,,,,,,,,,,,,,,,,,,,
1677472162.485071,1677472162.929838,75.000000,0.000000,4213.974121,4202.307617,4249.102539,4249.230957,4248.846191,4264.102539,4261.794922,4251.794922,4242.179688,4230.384766,4430.769043,4440.256348,4311.666504,4373.333496,6356.000000,4.000000,98.000000,,,,0.000000,4.000000,4.000000,4.000000,4.000000,4.000000,4.000000,4.000000,4.000000,4.000000,4.000000,4.000000,4.000000,4.000000,4.000000,100.000000,,,,,,,,,,,,,,,,,,,,,,,,,,,,
1677472162.492879,1677472162.937547,76.000000,0.000000,4211.922852,4194.230957,4239.358887,4236.538574,4246.025879,4258.205078,4255.769043,4245.897461,4231.666504,4227.820313,4427.307617,4431.025879,4306.025879,4358.717773,5971.000000,4.000000,98.000000,,,,0.000000,4.000000,4.000000,4.000000,4.000000,4.000000,4.000000,4.000000,4.000000,4.000000,4.000000,4.000000,4.000000,4.000000,4.000000,100.000000,1.000000,100.000000,4.000000,4.000000,4.000000,4.000000,4.000000,4.000000,4.000000,4.000000,4.000000,4.000000,4.000000,4.000000,4.000000,4.000000,19.000000,0.000000,0.687284,-0.195496,-0.699585,0.001831,0.931754,-0.314980,0.000488,-113.786179,19.393837,4.962853
1677472162.500686,1677472162.945355,77.000000,0.000000,4210.000000,4195.641113,4238.974121,4237.307617,4250.256348,4261.282227,4259.102539,4245.897461,4235.000000,4225.897461,4430.000000,4427.948730,4309.871582,4355.641113,6663.000000,4.000000,98.000000,,,,0.000000,4.000000,4.000000,4.000000,4.000000,4.000000,4.000000,4.000000,4.000000,4.000000,4.000000,4.000000,4.000000,4.000000,4.000000,100.000000,,,,,,,,,,,,,,,,,,,,,,,,,,,,
1677472162.508494,1677472162.953063,78.000000,0.000000,4217.948730,4211.025879,4250.512695,4250.256348,4252.051270,4263.077148,4266.025879,4257.436035,4248.846191,4235.897461,4443.077148,4443.333496,4324.102539,4375.256348,6040.000000,4.000000,98.000000,,,,0.000000,4.000000,4.000000,4.000000,4.000000,4.000000,4.000000,4.000000,4.000000,4.000000,4.000000,4.000000,4.000000,4.000000,4.000000,100.000000,,,,,,,,,,,,,,,,,,,,,,,,,,,,
1677472162.516302,1677472162.960871,79.000000,0.000000,4224.615234,4212.820313,4259.358887,4248.333496,4250.000000,4259.871582,4265.769043,4263.846191,4250.512695,4246.666504,4452.820313,4454.743652,4330.128418,4386.153809,6356.000000,4.000000,98.000000,,,,0.000000,4.000000,4.000000,4.000000,4.000000,4.000000,4.000000,4.000000,4.000000,4.000000,4.000000,4.000000,4.000000,4.000000,4.000000,100.000000,,,,,,,,,,,,,,,,,,,,,,,,,,,,
1677472162.524110,1677472162.968579,80.000000,0.000000,4225.512695,4201.153809,4261.666504,4240.769043,4246.538574,4260.769043,4267.051270,4258.205078,4245.384766,4246.153809,4454.743652,4452.692383,4329.358887,4385.256348,5971.000000,4.000000,98.000000,,,,0.000000,4.000000,4.000000,4.000000,4.000000,4.000000,4.000000,4.000000,4.000000,4.000000,4.000000,4.000000,4.000000,4.000000,4.000000,100.000000,,,,,,,,,,,,,,,,,20.000000,0.000000,0.687421,-0.194580,-0.699707,0.001160,0.948846,-0.286168,0.009767,-113.840897,19.421120,4.883235
1677472162.531918,1677472162.976387,81.000000,0.000000,4230.897461,4201.282227,4267.179688,4246.025879,4245.256348,4262.820313,4273.846191,4259.102539,4250.256348,4244.871582,4459.102539,4457.436035,4339.230957,4396.282227,6663.000000,4.000000,98.000000,,,,0.000000,4.000000,4.000000,4.000000,4.000000,4.000000,4.000000,4.000000,4.000000,4.000000,4.000000,4.000000,4.000000,4.000000,4.000000,100.000000,,,,,,,,,,,,,,,,,,,,,,,,,,,,
1677472162.539726,1677472162.984095,82.000000,0.000000,4236.922852,4212.563965,4274.871582,4252.051270,4244.615234,4260.256348,4271.025879,4268.333496,4256.666504,4242.948730,4461.025879,4465.641113,4346.538574,4400.897461,6040.000000,4.000000,98.000000,,,,0.000000,4.000000,4.000000,4.000000,4.000000,4.000000,4.000000,4.000000,4.000000,4.000000,4.000000,4.000000,4.000000,4.000000,4.000000,100.000000,,,,,,,,,,,,,,,,,,,,,,,,,,,,
1677472162.547534,1677472162.991903,83.000000,0.000000,4236.922852,4216.282227,4271.922852,4248.846191,4247.692383,4260.512695,4264.102539,4262.307617,4252.436035,4235.384766,4455.769043,4460.897461,4338.974121,4380.769043,6356.000000,4.000000,98.000000,,,,0.000000,4.000000,4.000000,4.000000,4.000000,4.000000,4.000000,4.000000,4.000000,4.000000,4.000000,4.000000,4.000000,4.000000,4.000000,100.000000,,,,,,,,,,,,,,,,,,,,,,,,,,,,
1677472162.555342,1677472162.999611,84.000000,0.000000,4237.692383,4213.974121,4268.077148,4249.487305,4257.820313,4263.589844,4265.256348,4255.128418,4249.102539,4239.358887,4453.077148,4453.974121,4336.153809,4376.282227,5971.000000,4.000000,98.000000,,,,0.000000,4.000000,4.000000,4.000000,4.000000,4.000000,4.000000,4.000000,4.000000,4.000000,4.000000,4.000000,4.000000,4.000000,4.000000,100.000000,,,,,,,,,,,,,,,,,21.000000,0.000000,0.687521,-0.193787,-0.699829,0.000671,0.954706,-0.286168,0.016604,-113.756805,19.445675,4.894911
1677472162.563150,1677472163.007419,85.000000,0.000000,4237.563965,4205.641113,4269.487305,4248.717773,4253.461426,4260.512695,4268.846191,4256.538574,4250.512695,4247.051270,4448.717773,4454.102539,4334.615234,4383.461426,6663.000000,4.000000,98.000000,,,,0.000000,4.000000,4.000000,4.000000,4.000000,4.000000,4.000000,4.000000,4.000000,4.000000,4.000000,4.000000,4.000000,4.000000,4.000000,100.000000,,,,,,,,,,,,,,,,,,,,,,,,,,,,
1677472162.570957,1677472163.015127,86.000000,0.000000,4232.436035,4203.461426,4263.205078,4245.641113,4245.769043,4260.769043,4266.153809,4252.820313,4248.205078,4236.410156,4443.461426,4449.743652,4325.512695,4376.282227,6040.000000,4.000000,98.000000,,,,0.000000,4.000000,4.000000,4.000000,4.000000,4.000000,4.000000,4.000000,4.000000,4.000000,4.000000,4.000000,4.000000,4.000000,4.000000,100.000000,,,,,,,,,,,,,,,,,,,,,,,,,,,,
1677472162.578765,1677472163.023035,87.000000,0.000000,4232.436035,4213.461426,4256.282227,4247.948730,4258.333496,4266.922852,4266.025879,4251.410156,4245.384766,4229.743652,4447.820313,4444.615234,4329.871582,4380.769043,6356.000000,4.000000,98.000000,,,,0.000000,4.000000,4.000000,4.000000,4.000000,4.000000,4.000000,4.000000,4.000000,4.000000,4.000000,4.000000,4.000000,4.000000,4.000000,100.000000,,,,,,,,,,,,,,,,,,,,,,,,,,,,
1677472162.586573,1677472163.030843,88.000000,0.000000,4230.256348,4209.487305,4252.051270,4244.743652,4264.743652,4266.025879,4264.743652,4253.846191,4243.846191,4235.641113,4449.102539,4440.384766,4336.922852,4386.538574,5971.000000,4.000000,98.000000,,,,0.000000,4.000000,4.000000,4.000000,4.000000,4.000000,4.000000,4.000000,4.000000,4.000000,4.000000,4.000000,4.000000,4.000000,4.000000,100.000000,,,,,,,,,,,,,,,,,22.000000,0.000000,0.687496,-0.192993,-0.700073,0.000244,0.960566,-0.290074,0.021975,-113.581123,19.667774,4.922087
1677472162.594381,1677472163.038750,89.000000,0.000000,4223.077148,4197.179688,4246.025879,4237.563965,4249.615234,4260.128418,4260.897461,4248.717773,4241.538574,4233.205078,4440.256348,4432.307617,4326.282227,4375.256348,6663.000000,4.000000,98.000000,,,,0.000000,4.000000,4.000000,4.000000,4.000000,4.000000,4.000000,4.000000,4.000000,4.000000,4.000000,4.000000,4.000000,4.000000,4.000000,100.000000,,,,,,,,,,,,,,,,,,,,,,,,,,,,
1677472162.602189,1677472163.046558,90.000000,0.000000,4227.051270,4204.102539,4246.538574,4242.436035,4243.333496,4262.948730,4263.589844,4245.384766,4244.102539,4233.077148,4440.641113,4434.102539,4325.641113,4373.974121,6040.000000,4.000000,98.000000,,,,0.000000,4.000000,4.000000,4.000000,4.000000,4.000000,4.000000,4.000000,4.000000,4.000000,4.000000,4.000000,4.000000,4.000000,4.000000,100.000000,,,,,,,,,,,,,,,,,,,,,,,,,,,,
1677472162.609997,1677472163.054466,91.000000,0.000000,4235.769043,4216.410156,4255.897461,4250.769043,4250.000000,4266.538574,4266.538574,4253.846191,4248.589844,4241.794922,4447.051270,4448.333496,4338.205078,4380.384766,6356.000000,4.000000,98.000000,,,,0.000000,4.000000,4.000000,4.000000,4.000000,4.000000,4.000000,4.000000,4.000000,4.000000,4.000000,4.000000,4.000000,4.000000,4.000000,100.000000,,,,,,,,,,,,,,,,,,,,,,,,,,,,
1677472162.617805,1677472163.062274,92.000000,0.000000,4233.846191,4212.948730,4260.769043,4244.487305,4246.410156,4260.256348,4262.179688,4259.358887,4248.589844,4240.000000,4447.692383,4450.641113,4338.717773,4378.461426,5971.000000,4.000000,98.000000,,,,0.000000,4.000000,4.000000,4.000000,4.000000,4.000000,4.000000,4.000000,4.000000,4.000000,4.000000,4.000000,4.000000,4.000000,4.000000,100.000000,,,,,,,,,,,,,,,,,23.000000,0.000000,0.687142,-0.192261,-0.700623,-0.000061,0.983030,-0.280308,0.026859,-113.556343,19.700996,4.946545
1677472162.625613,1677472163.070182,93.000000,0.000000,4235.641113,4211.025879,4262.948730,4241.794922,4240.512695,4257.179688,4265.769043,4265.256348,4255.256348,4239.487305,4457.179688,4450.000000,4341.282227,4388.077148,6663.000000,4.000000,98.000000,,,,0.000000,4.000000,4.000000,4.000000,4.000000,4.000000,4.000000,4.000000,4.000000,4.000000,4.000000,4.000000,4.000000,4.000000,4.000000,100.000000,,,,,,,,,,,,,,,,,,,,,,,,,,,,
1677472162.633421,1677472163.077990,94.000000,0.000000,4249.230957,4222.051270,4273.846191,4255.000000,4243.077148,4262.179688,4278.974121,4280.384766,4269.487305,4254.358887,4477.307617,4470.897461,4357.820313,4406.794922,6040.000000,4.000000,98.000000,,,,0.000000,4.000000,4.000000,4.000000,4.000000,4.000000,4.000000,4.000000,4.000000,4.000000,4.000000,4.000000,4.000000,4.000000,4.000000,100.000000,,,,,,,,,,,,,,,,,,,,,,,,,,,,
1677472162.641228,1677472163.085898,95.000000,0.000000,4257.820313,4230.641113,4280.384766,4261.153809,4247.563965,4264.743652,4279.615234,4287.436035,4274.230957,4265.384766,4481.282227,4485.769043,4367.820313,4411.538574,6356.000000,4.000000,98.000000,,,,0.000000,4.000000,4.000000,4.000000,4.000000,4.000000,4.000000,4.000000,4.000000,4.000000,4.000000,4.000000,4.000000,4.000000,4.000000,100.000000,,,,,,,,,,,,,,,,,,,,,,,,,,,,
1677472162.649036,1677472163.093706,96.000000,0.000000,4258.974121,4229.871582,4283.333496,4258.205078,4253.589844,4264.487305,4276.666504,4285.256348,4276.794922,4265.512695,4475.512695,4481.666504,4367.051270,4414.487305,5971.000000,4.000000,98.000000,,,,0.000000,4.000000,4.000000,4.000000,4.000000,4.000000,4.000000,4.000000,4.000000,4.000000,4.000000,4.000000,4.000000,4.000000,4.000000,100.000000,,,,,,,,,,,,,,,,,24.000000,0.000000,0.686213,-0.191345,-0.701782,-0.000610,0.981077,-0.272494,0.018069,-113.667381,19.780897,4.868557
1677472162.656844,1677472163.101614,97.000000,0.000000,4257.307617,4228.589844,4285.641113,4261.282227,4255.897461,4265.897461,4278.717773,4283.461426,4278.589844,4262.692383,4480.000000,4480.769043,4366.025879,4418.589844,6663.000000,4.000000,98.000000,,,,0.000000,4.000000,4.000000,4.000000,4.000000,4.000000,4.000000,4.000000,4.000000,4.000000,4.000000,4.000000,4.000000,4.000000,4.000000,100.000000,,,,,,,,,,,,,,,,,,,,,,,,,,,,
1677472162.664652,1677472163.109422,98.000000,0.000000,4252.563965,4231.538574,4279.487305,4262.179688,4254.487305,4266.666504,4273.461426,4277.436035,4266.538574,4252.948730,4476.794922,4477.563965,4361.410156,4410.384766,6040.000000,4.000000,98.000000,,,,0.000000,4.000000,4.000000,4.000000,4.000000,4.000000,4.000000,4.000000,4.000000,4.000000,4.000000,4.000000,4.000000,4.000000,4.000000,100.000000,,,,,,,,,,,,,,,,,,,,,,,,,,,,
1677472162.672460,1677472163.117130,99.000000,0.000000,4250.641113,4229.743652,4269.743652,4251.538574,4256.666504,4265.512695,4264.871582,4268.461426,4259.102539,4246.025879,4463.717773,4464.615234,4355.128418,4403.717773,6356.000000,4.000000,98.000000,,,,0.000000,4.000000,4.000000,4.000000,4.000000,4.000000,4.000000,4.000000,4.000000,4.000000,4.000000,4.000000,4.000000,4.000000,4.000000,100.000000,,,,,,,,,,,,,,,,,,,,,,,,,,,,
1677472162.680268,1677472163.124938,100.000000,0.000000,4245.769043,4219.487305,4263.589844,4245.769043,4254.615234,4264.615234,4265.512695,4262.692383,4260.641113,4248.846191,4460.897461,4454.871582,4352.820313,4402.563965,5971.000000,4.000000,98.000000,,,,0.000000,4.000000,4.000000,4.000000,4.000000,4.000000,4.000000,4.000000,4.000000,4.000000,4.000000,4.000000,4.000000,4.000000,4.000000,100.000000,,,,,,,,,,,,,,,,,25.000000,0.000000,0.685536,-0.190857,-0.702576,-0.000916,0.978635,-0.274936,0.001465,-113.733971,20.069473,4.798368
1677472162.688076,1677472163.132646,101.000000,0.000000,4236.153809,4214.358887,4258.461426,4249.358887,4246.794922,4263.333496,4266.794922,4257.436035,4253.717773,4248.077148,4462.948730,4450.384766,4349.743652,4399.743652,6663.000000,4.000000,98.000000,,,,0.000000,4.000000,4.000000,4.000000,4.000000,4.000000,4.000000,4.000000,4.000000,4.000000,4.000000,4.000000,4.000000,4.000000,4.000000,100.000000,,,,,,,,,,,,,,,,,,,,,,,,,,,,
1677472162.695884,1677472163.140454,102.000000,0.000000,4238.974121,4215.641113,4258.205078,4248.974121,4251.410156,4264.487305,4266.025879,4257.948730,4250.641113,4243.333496,4461.025879,4451.410156,4345.256348,4396.282227,6040.000000,4.000000,98.000000,,,,0.000000,4.000000,4.000000,4.000000,4.000000,4.000000,4.000000,4.000000,4.000000,4.000000,4.000000,4.000000,4.000000,4.000000,4.000000,100.000000,,,,,,,,,,,,,,,,,,,,,,,,,,,,
1677472162.703692,1677472163.148162,103.000000,0.000000,4245.769043,4216.025879,4259.102539,4246.153809,4256.410156,4264.487305,4264.615234,4261.794922,4258.846191,4246.282227,4460.769043,4455.641113,4345.512695,4396.153809,6356.000000,4.000000,98.000000,,,,0.000000,4.000000,4.000000,4.000000,4.000000,4.000000,4.000000,4.000000,4.000000,4.000000,4.000000,4.000000,4.000000,4.000000,4.000000,100.000000,,,,,,,,,,,,,,,,,,,,,,,,,,,,
1677472162.711500,1677472163.155970,104.000000,0.000000,4237.692383,4216.025879,4258.589844,4247.436035,4251.794922,4264.230957,4266.794922,4268.461426,4261.025879,4247.179688,4461.538574,4457.179688,4349.871582,4400.512695,5971.000000,4.000000,98.000000,,,,0.000000,4.000000,4.000000,4.000000,4.000000,4.000000,4.000000,4.000000,4.000000,4.000000,4.000000,4.000000,4.000000,4.000000,4.000000,100.000000,,,,,,,,,,,,,,,,,26.000000,0.000000,0.683811,-0.190063,-0.704468,-0.001709,0.958613,-0.251007,-0.002930,-113.810577,20.145859,4.518531
1677472162.719307,1677472163.163678,105.000000,0.000000,4228.717773,4217.307617,4259.230957,4249.102539,4258.589844,4268.717773,4270.128418,4275.512695,4262.179688,4246.922852,4461.025879,4457.563965,4350.000000,4396.153809,6663.000000,4.000000,98.000000,,,,0.000000,4.000000,4.000000,4.000000,4.000000,4.000000,4.000000,4.000000,4.000000,4.000000,4.000000,4.000000,4.000000,4.000000,4.000000,100.000000,,,,,,,,,,,,,,,,,,,,,,,,,,,,
1677472162.727115,1677472163.171486,106.000000,0.000000,4230.384766,4212.307617,4253.846191,4246.794922,4267.436035,4267.948730,4267.179688,4271.410156,4268.461426,4252.436035,4461.666504,4453.717773,4343.461426,4387.179688,6040.000000,4.000000,98.000000,,,,0.000000,4.000000,4.000000,4.000000,4.000000,4.000000,4.000000,4.000000,4.000000,4.000000,4.000000,4.000000,4.000000,4.000000,4.000000,100.000000,,,,,,,,,,,,,,,,,,,,,,,,,,,,
1677472162.734923,1677472163.179194,107.000000,0.000000,4232.948730,4208.717773,4244.487305,4245.000000,4261.153809,4263.333496,4262.436035,4262.563965,4262.307617,4247.820313,4456.538574,4443.846191,4336.922852,4391.153809,6356.000000,4.000000,98.000000,,,,0.000000,4.000000,4.000000,4.000000,4.000000,4.000000,4.000000,4.000000,4.000000,4.000000,4.000000,4.000000,4.000000,4.000000,4.000000,100.000000,,,,,,,,,,,,,,,,,,,,,,,,,,,,
1677472162.742731,1677472163.187002,108.000000,0.000000,4231.153809,4213.333496,4249.230957,4245.512695,4260.641113,4267.692383,4266.538574,4262.051270,4256.410156,4239.230957,4451.410156,4442.436035,4332.948730,4395.641113,5971.000000,4.000000,98.000000,,,,0.000000,4.000000,4.000000,4.000000,4.000000,4.000000,4.000000,4.000000,4.000000,4.000000,4.000000,4.000000,4.000000,4.000000,4.000000,100.000000,,,,,,,,,,,,,,,,,27.000000,0.000000,0.682234,-0.189148,-0.706238,-0.002808,0.961543,-0.256379,0.000488,-113.879517,20.364607,4.300011
1677472162.750539,1677472163.194710,109.000000,0.000000,4232.692383,4219.615234,4259.102539,4249.102539,4268.846191,4277.051270,4271.410156,4266.538574,4263.205078,4248.846191,4457.692383,4448.974121,4336.794922,4393.974121,6663.000000,4.000000,98.000000,,,,0.000000,4.000000,4.000000,4.000000,4.000000,4.000000,4.000000,4.000000,4.000000,4.000000,4.000000,4.000000,4.000000,4.000000,4.000000,100.000000,,,,,,,,,,,,,,,,,,,,,,,,,,,,
1677472162.758347,1677472163.202618,110.000000,0.000000,4235.384766,4221.794922,4256.025879,4251.538574,4266.794922,4275.128418,4267.051270,4266.410156,4265.512695,4251.794922,4463.974121,4451.922852,4342.692383,4396.666504,6040.000000,4.000000,98.000000,,,,0.000000,4.000000,4.000000,4.000000,4.000000,4.000000,4.000000,4.000000,4.000000,4.000000,4.000000,4.000000,4.000000,4.000000,4.000000,100.000000,,,,,,,,,,,,,,,,,,,,,,,,,,,,
1677472162.766155,1677472163.210426,111.000000,0.000000,4234.871582,4218.846191,4251.282227,4250.128418,4259.743652,4267.051270,4263.974121,4266.538574,4261.538574,4234.743652,4457.051270,4449.743652,4335.256348,4394.102539,6356.000000,4.000000,98.000000,,,,0.000000,4.000000,4.000000,4.000000,4.000000,4.000000,4.000000,4.000000,4.000000,4.000000,4.000000,4.000000,4.000000,4.000000,4.000000,100.000000,,,,,,,,,,,,,,,,,,,,,,,,,,,,
1677472162.773963,1677472163.218334,112.000000,0.000000,4232.948730,4216.922852,4252.436035,4247.692383,4261.025879,4265.000000,4264.615234,4266.538574,4257.179688,4232.692383,4448.589844,4448.589844,4326.282227,4386.794922,5971.000000,4.000000,98.000000,,,,0.000000,4.000000,4.000000,4.000000,4.000000,4.000000,4.000000,4.000000,4.000000,4.000000,4.000000,4.000000,4.000000,4.000000,4.000000,100.000000,,,,,,,,,,,,,,,,,28.000000,0.000000,0.681060,-0.188110,-0.707642,-0.003845,0.943475,-0.254914,-0.017092,-114.024902,20.561480,3.986677
1677472162.781771,1677472163.226142,113.000000,0.000000,4230.897461,4215.512695,4252.692383,4245.641113,4263.333496,4264.743652,4263.846191,4258.333496,4251.538574,4246.794922,4445.641113,4447.051270,4326.410156,4392.307617,6663.000000,4.000000,98.000000,,,,0.000000,4.000000,4.000000,4.000000,4.000000,4.000000,4.000000,4.000000,4.000000,4.000000,4.000000,4.000000,4.000000,4.000000,4.000000,100.000000,,,,,,,,,,,,,,,,,,,,,,,,,,,,
1677472162.789578,1677472163.234050,114.000000,0.000000,4230.128418,4215.769043,4252.436035,4248.974121,4265.128418,4267.948730,4263.205078,4252.307617,4249.230957,4248.461426,4445.641113,4442.948730,4326.410156,4399.102539,6040.000000,4.000000,98.000000,,,,0.000000,4.000000,4.000000,4.000000,4.000000,4.000000,4.000000,4.000000,4.000000,4.000000,4.000000,4.000000,4.000000,4.000000,4.000000,100.000000,,,,,,,,,,,,,,,,,,,,,,,,,,,,
1677472162.797386,1677472163.241858,115.000000,0.000000,4231.538574,4218.974121,4252.436035,4254.358887,4267.820313,4275.128418,4264.871582,4256.922852,4251.794922,4240.769043,4447.436035,4443.589844,4326.666504,4397.820313,6356.000000,4.000000,98.000000,,,,0.000000,4.000000,4.000000,4.000000,4.000000,4.000000,4.000000,4.000000,4.000000,4.000000,4.000000,4.000000,4.000000,4.000000,4.000000,100.000000,,,,,,,,,,,,,,,,,,,,,,,,,,,,
1677472162.805194,1677472163.249765,116.000000,0.000000,4227.179688,4213.461426,4245.769043,4248.846191,4266.666504,4273.077148,4261.538574,4260.000000,4248.846191,4236.153809,4444.102539,4442.692383,4326.025879,4388.846191,5971.000000,4.000000,98.000000,,,,0.000000,4.000000,4.000000,4.000000,4.000000,4.000000,4.000000,4.000000,4.000000,4.000000,4.000000,4.000000,4.000000,4.000000,4.000000,100.000000,,,,,,,,,,,,,,,,,29.000000,0.000000,0.680098,-0.187439,-0.708740,-0.004517,0.946893,-0.244659,-0.021487,-113.955742,20.788666,3.738009
1677472162.813002,1677472163.257573,117.000000,0.000000,4216.922852,4205.512695,4235.512695,4241.410156,4264.615234,4263.333496,4255.128418,4254.102539,4245.769043,4232.820313,4441.666504,4436.794922,4317.051270,4371.282227,6663.000000,4.000000,98.000000,,,,0.000000,4.000000,4.000000,4.000000,4.000000,4.000000,4.000000,4.000000,4.000000,4.000000,4.000000,4.000000,4.000000,4.000000,4.000000,100.000000,,,,,,,,,,,,,,,,,,,,,,,,,,,,
1677472162.820810,1677472163.265481,118.000000,0.000000,4212.563965,4207.692383,4234.487305,4242.051270,4261.538574,4262.436035,4253.205078,4251.025879,4244.615234,4229.615234,4441.666504,4431.538574,4312.692383,4371.025879,6040.000000,4.000000,98.000000,,,,0.000000,4.000000,4.000000,4.000000,4.000000,4.000000,4.000000,4.000000,4.000000,4.000000,4.000000,4.000000,4.000000,4.000000,4.000000,100.000000,,,,,,,,,,,,,,,,,,,,,,,,,,,,
1677472162.828618,1677472163.273289,119.000000,0.000000,4217.820313,4208.461426,4236.025879,4243.077148,4255.769043,4264.615234,4257.307617,4248.589844,4237.692383,4225.128418,4433.717773,4429.358887,4313.461426,4382.436035,6356.000000,4.000000,98.000000,,,,0.000000,4.000000,4.000000,4.000000,4.000000,4.000000,4.000000,4.000000,4.000000,4.000000,4.000000,4.000000,4.000000,4.000000,4.000000,100.000000,,,,,,,,,,,,,,,,,,,,,,,,,,,,
1677472162.836426,1677472163.281197,120.000000,0.000000,4226.410156,4206.538574,4235.897461,4242.948730,4254.743652,4263.333496,4262.820313,4244.871582,4237.692383,4224.358887,4432.563965,4431.410156,4311.282227,4376.922852,5971.000000,4.000000,98.000000,,,,0.000000,4.000000,4.000000,4.000000,4.000000,4.000000,4.000000,4.000000,4.000000,4.000000,4.000000,4.000000,4.000000,4.000000,4.000000,100.000000,,,,,,,,,,,,,,,,,30.000000,0.000000,0.679686,-0.187073,-0.709229,-0.005005,0.959101,-0.239775,-0.019045,-113.893501,20.909798,3.564208
1677472162.844234,1677472163.289005,121.000000,0.000000,4234.487305,4216.025879,4247.051270,4249.358887,4263.461426,4268.461426,4269.358887,4256.794922,4248.717773,4236.538574,4448.717773,4446.153809,4319.230957,4381.666504,6663.000000,4.000000,98.000000,,,,0.000000,4.000000,4.000000,4.000000,4.000000,4.000000,4.000000,4.000000,4.000000,4.000000,4.000000,4.000000,4.000000,4.000000,4.000000,100.000000,,,,,,,,,,,,,,,,,,,,,,,,,,,,
1677472162.852042,1677472163.296713,122.000000,0.000000,4236.922852,4222.692383,4256.410156,4252.436035,4267.948730,4270.769043,4268.461426,4264.487305,4251.410156,4243.846191,4452.179688,4456.153809,4330.128418,4403.461426,6040.000000,4.000000,98.000000,,,,0.000000,4.000000,4.000000,4.000000,4.000000,4.000000,4.000000,4.000000,4.000000,4.000000,4.000000,4.000000,4.000000,4.000000,4.000000,100.000000,,,,,,,,,,,,,,,,,,,,,,,,,,,,
1677472162.859849,1677472163.304521,123.000000,0.000000,4234.358887,4216.794922,4248.333496,4246.538574,4262.179688,4263.717773,4263.205078,4250.256348,4241.794922,4233.974121,4438.717773,4444.871582,4322.563965,4400.512695,6356.000000,4.000000,98.000000,,,,0.000000,4.000000,4.000000,4.000000,4.000000,4.000000,4.000000,4.000000,4.000000,4.000000,4.000000,4.000000,4.000000,4.000000,4.000000,100.000000,,,,,,,,,,,,,,,,,,,,,,,,,,,,
1677472162.867657,1677472163.312229,124.000000,0.000000,4226.410156,4214.230957,4237.179688,4242.307617,4261.922852,4261.282227,4259.743652,4240.512695,4240.000000,4226.794922,4434.615234,4432.179688,4310.897461,4378.846191,5971.000000,4.000000,98.000000,,,,0.000000,4.000000,4.000000,4.000000,4.000000,4.000000,4.000000,4.000000,4.000000,4.000000,4.000000,4.000000,4.000000,4.000000,4.000000,100.000000,,,,,,,,,,,,,,,,,31.000000,0.000000,0.679717,-0.186707,-0.709290,-0.005798,0.965450,-0.250519,-0.016604,-113.854149,21.168819,3.457788
1677472162.875465,1677472163.320137,125.000000,0.000000,4219.487305,4212.948730,4237.692383,4244.871582,4263.717773,4266.410156,4258.589844,4247.051270,4247.563965,4231.794922,4436.410156,4430.769043,4310.897461,4372.692383,6663.000000,4.000000,98.000000,,,,0.000000,4.000000,4.000000,4.000000,4.000000,4.000000,4.000000,4.000000,4.000000,4.000000,4.000000,4.000000,4.000000,4.000000,4.000000,100.000000,,,,,,,,,,,,,,,,,,,,,,,,,,,,
1677472162.883273,1677472163.327945,126.000000,0.000000,4220.897461,4207.820313,4240.384766,4247.692383,4259.615234,4267.179688,4261.666504,4255.641113,4249.615234,4234.743652,4434.871582,4433.461426,4311.922852,4373.461426,6040.000000,4.000000,98.000000,,,,0.000000,4.000000,4.000000,4.000000,4.000000,4.000000,4.000000,4.000000,4.000000,4.000000,4.000000,4.000000,4.000000,4.000000,4.000000,100.000000,,,,,,,,,,,,,,,,,,,,,,,,,,,,
1677472162.891081,1677472163.335853,127.000000,0.000000,4221.666504,4206.794922,4238.205078,4240.897461,4260.769043,4262.820313,4262.051270,4258.717773,4247.051270,4231.922852,4435.769043,4435.000000,4308.205078,4362.692383,98.000000,4.000000,98.000000,,,,0.000000,4.000000,4.000000,4.000000,4.000000,4.000000,4.000000,4.000000,4.000000,4.000000,4.000000,4.000000,4.000000,4.000000,4.000000,100.000000,,,,,,,,,,,,,,,,,,,,,,,,,,,,
1677472162.898889,1677472163.343661,0.000000,0.000000,4219.615234,4209.743652,4239.102539,4237.051270,4264.871582,4263.205078,4262.307617,4261.794922,4248.333496,4229.615234,4438.717773,4437.179688,4306.538574,4361.410156,5454.000000,4.000000,98.000000,,,,0.000000,4.000000,4.000000,4.000000,4.000000,4.000000,4.000000,4.000000,4.000000,4.000000,4.000000,4.000000,4.000000,4.000000,4.000000,100.000000,,,,,,,,,,,,,,,,,0.000000,0.000000,0.679843,-0.186707,-0.709167,-0.005920,0.969357,-0.231962,-0.019045,-113.985405,21.185270,3.212009
1677472162.906697,1677472163.351569,1.000000,0.000000,4225.769043,4213.589844,4246.153809,4244.871582,4262.051270,4266.410156,4265.256348,4262.948730,4249.743652,4232.820313,4441.025879,4442.179688,4310.384766,4385.000000,4819.000000,4.000000,98.000000,,,,0.000000,4.000000,4.000000,4.000000,4.000000,4.000000,4.000000,4.000000,4.000000,4.000000,4.000000,4.000000,4.000000,4.000000,4.000000,100.000000,,,,,,,,,,,,,,,,,,,,,,,,,,,,
1677472162.914505,1677472163.359377,2.000000,0.000000,4237.563965,4217.307617,4256.922852,4251.538574,4261.538574,4265.512695,4268.846191,4266.025879,4251.153809,4243.589844,4446.153809,4452.051270,4321.538574,4404.615234,5297.000000,4.000000,98.000000,,,,0.000000,4.000000,4.000000,4.000000,4.000000,4.000000,4.000000,4.000000,4.000000,4.000000,4.000000,4.000000,4.000000,4.000000,4.000000,100.000000,,,,,,,,,,,,,,,,,,,,,,,,,,,,
1677472162.922313,1677472163.367185,3.000000,0.000000,4240.769043,4220.000000,4259.230957,4248.846191,4260.000000,4264.230957,4269.230957,4268.846191,4258.461426,4251.025879,4449.487305,4457.307617,4325.897461,4399.743652,5477.000000,4.000000,98.000000,,,,0.000000,4.000000,4.000000,4.000000,4.000000,4.000000,4.000000,4.000000,4.000000,4.000000,4.000000,4.000000,4.000000,4.000000,4.000000,100.000000,,,,,,,,,,,,,,,,,,,,,,,,,,,,
1677472162.930120,1677472163.374893,4.000000,0.000000,4235.000000,4217.307617,4254.615234,4244.743652,4249.615234,4266.025879,4271.282227,4266.666504,4259.615234,4248.846191,4445.512695,4453.717773,4317.307617,4395.769043,4729.000000,4.000000,98.000000,,,,0.000000,4.000000,4.000000,4.000000,4.000000,4.000000,4.000000,4.000000,4.000000,4.000000,4.000000,4.000000,4.000000,4.000000,4.000000,100.000000,,,,,,,,,,,,,,,,,1.000000,0.000000,0.680044,-0.187134,-0.708862,-0.005920,0.946405,-0.244170,-0.012209,-113.936867,21.200077,3.024141
1677472162.937928,1677472163.382701,5.000000,0.000000,4230.897461,4214.358887,4249.743652,4245.897461,4252.820313,4266.025879,4270.000000,4264.230957,4252.436035,4247.179688,4444.487305,4449.230957,4315.128418,4392.051270,4914.000000,4.000000,98.000000,,,,0.000000,4.000000,4.000000,4.000000,4.000000,4.000000,4.000000,4.000000,4.000000,4.000000,4.000000,4.000000,4.000000,4.000000,4.000000,100.000000,,,,,,,,,,,,,,,,,,,,,,,,,,,,
1677472162.945736,1677472163.390409,6.000000,0.000000,4232.563965,4216.666504,4245.256348,4248.333496,4266.794922,4264.615234,4263.846191,4260.256348,4249.358887,4242.179688,4447.051270,4449.230957,4318.846191,4376.666504,3894.000000,4.000000,98.000000,,,,0.000000,4.000000,4.000000,4.000000,4.000000,4.000000,4.000000,4.000000,4.000000,4.000000,4.000000,4.000000,4.000000,4.000000,4.000000,100.000000,,,,,,,,,,,,,,,,,,,,,,,,,,,,
1677472162.953544,1677472163.398317,7.000000,0.000000,4229.230957,4217.692383,4241.794922,4247.563965,4264.230957,4262.820313,4261.153809,4254.743652,4250.769043,4232.307617,4441.794922,4445.512695,4313.589844,4376.025879,5056.000000,4.000000,98.000000,,,,0.000000,4.000000,4.000000,4.000000,4.000000,4.000000,4.000000,4.000000,4.000000,4.000000,4.000000,4.000000,4.000000,4.000000,4.000000,100.000000,,,,,,,,,,,,,,,,,,,,,,,,,,,,
1677472162.961352,1677472163.406125,8.000000,0.000000,4223.974121,4215.128418,4243.589844,4244.743652,4260.256348,4264.358887,4261.922852,4256.794922,4248.589844,4230.512695,4432.820313,4440.384766,4307.692383,4384.230957,4969.000000,4.000000,98.000000,,,,0.000000,4.000000,4.000000,4.000000,4.000000,4.000000,4.000000,4.000000,4.000000,4.000000,4.000000,4.000000,4.000000,4.000000,4.000000,100.000000,,,,,,,,,,,,,,,,,2.000000,0.000000,0.680327,-0.187500,-0.708496,-0.005676,0.968868,-0.250031,0.005860,-113.826508,21.280069,2.955060
1677472162.969160,1677472163.414033,9.000000,0.000000,4227.692383,4212.436035,4243.846191,4244.358887,4258.461426,4262.820313,4258.333496,4258.461426,4244.230957,4231.282227,4430.384766,4438.333496,4308.077148,4375.897461,4634.000000,4.000000,98.000000,,,,0.000000,4.000000,4.000000,4.000000,4.000000,4.000000,4.000000,4.000000,4.000000,4.000000,4.000000,4.000000,4.000000,4.000000,4.000000,100.000000,,,,,,,,,,,,,,,,,,,,,,,,,,,,
1677472162.976968,1677472163.421840,10.000000,0.000000,4237.307617,4216.922852,4242.692383,4249.230957,4249.871582,4253.461426,4259.743652,4253.717773,4243.077148,4229.230957,4434.358887,4439.871582,4308.974121,4379.358887,6027.000000,4.000000,98.000000,,,,0.000000,4.000000,4.000000,4.000000,4.000000,4.000000,4.000000,4.000000,4.000000,4.000000,4.000000,4.000000,4.000000,4.000000,4.000000,100.000000,,,,,,,,,,,,,,,,,,,,,,,,,,,,
1677472162.984776,1677472163.429748,11.000000,0.000000,4248.333496,4230.641113,4256.538574,4256.410156,4255.897461,4254.487305,4269.230957,4259.871582,4248.205078,4232.051270,4446.153809,4454.102539,4317.436035,4412.436035,6339.000000,4.000000,98.000000,,,,0.000000,4.000000,4.000000,4.000000,4.000000,4.000000,4.000000,4.000000,4.000000,4.000000,4.000000,4.000000,4.000000,4.000000,4.000000,100.000000,,,,,,,,,,,,,,,,,,,,,,,,,,,,
1677472162.992584,1677472163.437556,12.000000,0.000000,4251.410156,4233.461426,4268.974121,4255.256348,4264.615234,4260.000000,4269.102539,4269.871582,4253.077148,4234.102539,4452.692383,4468.974121,4328.846191,4415.512695,5960.000000,4.000000,98.000000,,,,0.000000,4.000000,4.000000,4.000000,4.000000,4.000000,4.000000,4.000000,4.000000,4.000000,4.000000,4.000000,4.000000,4.000000,4.000000,100.000000,1.000000,100.000000,4.000000,4.000000,4.000000,4.000000,4.000000,4.000000,4.000000,4.000000,4.000000,4.000000,4.000000,4.000000,4.000000,4.000000,3.000000,0.000000,0.680655,-0.187927,-0.708069,-0.005554,0.964473,-0.237334,0.001465,-113.943863,21.102062,2.809554
1677472163.000392,1677472163.445464,13.000000,0.000000,4244.743652,4224.230957,4261.538574,4248.333496,4252.436035,4252.179688,4264.871582,4265.769043,4249.230957,4238.333496,4445.897461,4468.205078,4326.153809,4383.461426,6664.000000,4.000000,98.000000,,,,0.000000,4.000000,4.000000,4.000000,4.000000,4.000000,4.000000,4.000000,4.000000,4.000000,4.000000,4.000000,4.000000,4.000000,4.000000,100.000000,,,,,,,,,,,,,,,,,,,,,,,,,,,,
1677472163.008199,1677472163.453272,14.000000,0.000000,4242.563965,4221.410156,4256.153809,4248.077148,4243.589844,4245.384766,4268.461426,4260.256348,4248.461426,4248.333496,4444.615234,4461.282227,4321.025879,4389.743652,6027.000000,4.000000,98.000000,,,,0.000000,4.000000,4.000000,4.000000,4.000000,4.000000,4.000000,4.000000,4.000000,4.000000,4.000000,4.000000,4.000000,4.000000,4.000000,100.000000,,,,,,,,,,,,,,,,,,,,,,,,,,,,
1677472163.016007,1677472163.461180,15.000000,0.000000,4247.820313,4224.743652,4260.384766,4251.666504,4251.922852,4254.615234,4268.205078,4264.487305,4253.589844,4247.436035,4448.461426,4458.846191,4322.436035,4417.436035,6339.000000,4.000000,98.000000,,,,0.000000,4.000000,4.000000,4.000000,4.000000,4.000000,4.000000,4.000000,4.000000,4.000000,4.000000,4.000000,4.000000,4.000000,4.000000,100.000000,,,,,,,,,,,,,,,,,,,,,,,,,,,,
1677472163.023815,1677472163.468988,16.000000,0.000000,4247.692383,4221.153809,4258.589844,4249.487305,4259.487305,4262.692383,4263.077148,4264.743652,4251.922852,4241.794922,4447.563965,4459.871582,4326.538574,4410.128418,0.000000,4.000000,98.000000,,,,0.000000,4.000000,4.000000,4.000000,4.000000,4.000000,4.000000,4.000000,4.000000,4.000000,4.000000,4.000000,4.000000,4.000000,4.000000,100.000000,,,,,,,,,,,,,,,,,4.000000,0.000000,0.680880,-0.188965,-0.707581,-0.005005,0.982053,-0.264681,0.002930,-113.999474,21.108522,2.761932
1677472163.031623,1677472163.476696,17.000000,0.000000,4246.153809,4221.153809,4259.871582,4245.769043,4262.051270,4263.077148,4266.538574,4262.307617,4246.153809,4242.948730,4447.179688,4463.717773,4326.794922,4391.153809,0.000000,4.000000,98.000000,,,,0.000000,4.000000,4.000000,4.000000,4.000000,4.000000,4.000000,4.000000,4.000000,4.000000,4.000000,4.000000,4.000000,4.000000,4.000000,100.000000,,,,,,,,,,,,,,,,,,,,,,,,,,,,
1677472163.039431,1677472163.484504,18.000000,0.000000,4251.538574,4230.256348,4267.692383,4251.282227,4266.282227,4265.000000,4267.307617,4262.436035,4246.025879,4236.794922,4447.692383,4466.794922,4324.487305,4405.769043,0.000000,4.000000,98.000000,,,,0.000000,4.000000,4.000000,4.000000,4.000000,4.000000,4.000000,4.000000,4.000000,4.000000,4.000000,4.000000,4.000000,4.000000,4.000000,100.000000,,,,,,,,,,,,,,,,,,,,,,,,,,,,
1677472163.047239,1677472163.492212,19.000000,0.000000,4254.743652,4235.641113,4266.538574,4257.692383,4265.641113,4264.230957,4262.051270,4262.179688,4248.077148,4230.128418,4447.948730,4466.153809,4326.282227,4417.179688,0.000000,4.000000,98.000000,,,,0.000000,4.000000,4.000000,4.000000,4.000000,4.000000,4.000000,4.000000,4.000000,4.000000,4.000000,4.000000,4.000000,4.000000,4.000000,100.000000,,,,,,,,,,,,,,,,,,,,,,,,,,,,
1677472163.055047,1677472163.500020,20.000000,0.000000,4252.820313,4233.846191,4259.487305,4253.974121,4262.563965,4262.436035,4260.897461,4261.282227,4248.077148,4235.769043,4448.205078,4467.307617,4327.563965,4397.051270,0.000000,4.000000,98.000000,,,,0.000000,4.000000,4.000000,4.000000,4.000000,4.000000,4.000000,4.000000,4.000000,4.000000,4.000000,4.000000,4.000000,4.000000,4.000000,100.000000,,,,,,,,,,,,,,,,,5.000000,0.000000,0.680637,-0.190308,-0.707458,-0.004272,0.974728,-0.253449,-0.014650,-114.049522,21.114336,2.602406
1677472163.062855,1677472163.507728,21.000000,0.000000,4244.487305,4226.922852,4257.948730,4247.436035,4261.282227,4261.538574,4263.333496,4261.538574,4249.743652,4238.717773,4446.282227,4466.025879,4322.051270,4388.589844,0.000000,4.000000,98.000000,,,,0.000000,4.000000,4.000000,4.000000,4.000000,4.000000,4.000000,4.000000,4.000000,4.000000,4.000000,4.000000,4.000000,4.000000,4.000000,100.000000,,,,,,,,,,,,,,,,,,,,,,,,,,,,
1677472163.070663,1677472163.515536,22.000000,0.000000,4236.410156,4224.615234,4257.307617,4245.384766,4261.538574,4261.922852,4262.692383,4261.410156,4248.205078,4239.487305,4442.179688,4457.563965,4316.282227,4399.743652,0.000000,4.000000,98.000000,,,,0.000000,4.000000,4.000000,4.000000,4.000000,4.000000,4.000000,4.000000,4.000000,4.000000,4.000000,4.000000,4.000000,4.000000,4.000000,100.000000,,,,,,,,,,,,,,,,,,,,,,,,,,,,
1677472163.078470,1677472163.523244,23.000000,0.000000,4243.589844,4228.589844,4259.230957,4247.692383,4261.153809,4261.922852,4265.256348,4260.384766,4245.641113,4243.333496,4445.897461,4457.051270,4319.230957,4403.589844,0.000000,4.000000,98.000000,,,,0.000000,4.000000,4.000000,4.000000,4.000000,4.000000,4.000000,4.000000,4.000000,4.000000,4.000000,4.000000,4.000000,4.000000,4.000000,100.000000,,,,,,,,,,,,,,,,,,,,,,,,,,,,
1677472163.086278,1677472163.531052,24.000000,0.000000,4260.000000,4234.871582,4269.230957,4257.436035,4263.461426,4264.487305,4271.410156,4264.230957,4253.077148,4244.743652,4457.051270,4466.025879,4331.666504,4411.025879,0.000000,4.000000,98.000000,,,,0.000000,4.000000,4.000000,4.000000,4.000000,4.000000,4.000000,4.000000,4.000000,4.000000,4.000000,4.000000,4.000000,4.000000,4.000000,100.000000,,,,,,,,,,,,,,,,,6.000000,0.000000,0.680557,-0.191284,-0.707275,-0.003723,0.968380,-0.249542,-0.010743,-114.077904,21.102903,2.558832
1677472163.094086,1677472163.538760,25.000000,0.000000,4260.128418,4237.179688,4275.897461,4264.743652,4268.461426,4267.051270,4273.589844,4268.333496,4260.769043,4246.794922,4461.538574,4471.410156,4337.692383,4415.641113,0.000000,4.000000,98.000000,,,,0.000000,4.000000,4.000000,4.000000,4.000000,4.000000,4.000000,4.000000,4.000000,4.000000,4.000000,4.000000,4.000000,4.000000,4.000000,100.000000,,,,,,,,,,,,,,,,,,,,,,,,,,,,
1677472163.101894,1677472163.546568,26.000000,0.000000,4247.436035,4232.436035,4269.871582,4260.000000,4263.974121,4262.563965,4269.358887,4266.410156,4258.077148,4248.974121,4456.666504,4467.307617,4328.205078,4394.487305,0.000000,4.000000,98.000000,,,,0.000000,4.000000,4.000000,4.000000,4.000000,4.000000,4.000000,4.000000,4.000000,4.000000,4.000000,4.000000,4.000000,4.000000,4.000000,100.000000,,,,,,,,,,,,,,,,,,,,,,,,,,,,
1677472163.109702,1677472163.554276,27.000000,0.000000,4248.077148,4233.333496,4265.000000,4259.358887,4259.230957,4260.256348,4268.333496,4268.589844,4258.333496,4248.205078,4456.538574,4466.538574,4328.461426,4392.563965,0.000000,4.000000,98.000000,,,,0.000000,4.000000,4.000000,4.000000,4.000000,4.000000,4.000000,4.000000,4.000000,4.000000,4.000000,4.000000,4.000000,4.000000,4.000000,100.000000,,,,,,,,,,,,,,,,,,,,,,,,,,,,
1677472163.117510,1677472163.562084,28.000000,0.000000,4250.512695,4232.948730,4264.743652,4261.025879,4263.589844,4264.615234,4269.615234,4272.179688,4264.743652,4249.615234,4459.358887,4469.230957,4341.410156,4417.307617,0.000000,4.000000,98.000000,,,,0.000000,4.000000,4.000000,4.000000,4.000000,4.000000,4.000000,4.000000,4.000000,4.000000,4.000000,4.000000,4.000000,4.000000,4.000000,100.000000,,,,,,,,,,,,,,,,,7.000000,0.000000,0.680523,-0.191406,-0.707275,-0.003601,0.952753,-0.242705,-0.006837,-114.186783,21.009279,2.436282
1677472163.125318,1677472163.569792,29.000000,0.000000,4239.230957,4222.948730,4257.820313,4252.563965,4265.897461,4267.051270,4266.666504,4266.410156,4261.922852,4248.589844,4450.512695,4462.051270,4336.410156,4408.974121,0.000000,4.000000,98.000000,,,,0.000000,4.000000,4.000000,4.000000,4.000000,4.000000,4.000000,4.000000,4.000000,4.000000,4.000000,4.000000,4.000000,4.000000,4.000000,100.000000,,,,,,,,,,,,,,,,,,,,,,,,,,,,
1677472163.133126,1677472163.577600,30.000000,0.000000,4227.692383,4211.538574,4249.615234,4244.358887,4263.333496,4262.563965,4262.563965,4257.948730,4249.615234,4237.436035,4440.641113,4450.769043,4318.589844,4381.282227,0.000000,4.000000,98.000000,,,,0.000000,4.000000,4.000000,4.000000,4.000000,4.000000,4.000000,4.000000,4.000000,4.000000,4.000000,4.000000,4.000000,4.000000,4.000000,100.000000,,,,,,,,,,,,,,,,,,,,,,,,,,,,
1677472163.140934,1677472163.585308,31.000000,0.000000,4230.256348,4213.589844,4248.589844,4246.922852,4260.512695,4259.871582,4263.461426,4259.871582,4246.666504,4234.102539,4444.615234,4449.743652,4317.948730,4384.230957,0.000000,4.000000,98.000000,,,,0.000000,4.000000,4.000000,4.000000,4.000000,4.000000,4.000000,4.000000,4.000000,4.000000,4.000000,4.000000,4.000000,4.000000,4.000000,100.000000,,,,,,,,,,,,,,,,,,,,,,,,,,,,
1677472163.148741,1677472163.593116,32.000000,0.000000,4244.487305,4227.948730,4257.051270,4258.333496,4266.666504,4266.025879,4271.153809,4270.641113,4255.769043,4245.512695,4457.948730,4466.666504,4332.948730,4404.487305,0.000000,4.000000,98.000000,,,,0.000000,4.000000,4.000000,4.000000,4.000000,4.000000,4.000000,4.000000,4.000000,4.000000,4.000000,4.000000,4.000000,4.000000,4.000000,100.000000,,,,,,,,,,,,,,,,,8.000000,0.000000,0.680739,-0.190857,-0.707214,-0.004028,0.992797,-0.249054,-0.007813,-114.218102,20.941685,2.342654
1677472163.156549,1677472163.600824,33.000000,0.000000,4252.820313,4235.897461,4267.179688,4263.077148,4273.717773,4270.641113,4274.487305,4280.256348,4263.589844,4253.846191,4464.871582,4481.666504,4343.717773,4416.922852,0.000000,4.000000,98.000000,,,,0.000000,4.000000,4.000000,4.000000,4.000000,4.000000,4.000000,4.000000,4.000000,4.000000,4.000000,4.000000,4.000000,4.000000,4.000000,100.000000,,,,,,,,,,,,,,,,,,,,,,,,,,,,
1677472163.164357,1677472163.608732,34.000000,0.000000,4248.974121,4229.230957,4271.410156,4258.333496,4267.051270,4265.897461,4273.846191,4279.358887,4262.563965,4249.230957,4458.333496,4481.794922,4343.205078,4412.692383,0.000000,4.000000,98.000000,,,,0.000000,4.000000,4.000000,4.000000,4.000000,4.000000,4.000000,4.000000,4.000000,4.000000,4.000000,4.000000,4.000000,4.000000,4.000000,100.000000,,,,,,,,,,,,,,,,,,,,,,,,,,,,
1677472163.172165,1677472163.616540,35.000000,0.000000,4250.384766,4224.743652,4277.179688,4259.487305,4259.102539,4261.025879,4276.410156,4280.512695,4262.563965,4245.769043,4458.461426,4485.384766,4340.641113,4404.615234,0.000000,4.000000,98.000000,,,,0.000000,4.000000,4.000000,4.000000,4.000000,4.000000,4.000000,4.000000,4.000000,4.000000,4.000000,4.000000,4.000000,4.000000,4.000000,100.000000,,,,,,,,,,,,,,,,,,,,,,,,,,,,
1677472163.179973,1677472163.624448,36.000000,0.000000,4263.589844,4231.410156,4288.717773,4264.487305,4261.410156,4267.948730,4280.769043,4291.282227,4270.897461,4258.589844,4471.922852,4498.077148,4343.461426,4421.922852,0.000000,4.000000,98.000000,,,,0.000000,4.000000,4.000000,4.000000,4.000000,4.000000,4.000000,4.000000,4.000000,4.000000,4.000000,4.000000,4.000000,4.000000,4.000000,100.000000,,,,,,,,,,,,,,,,,9.000000,0.000000,0.680920,-0.190430,-0.707153,-0.004272,1.003052,-0.244170,-0.009767,-114.379631,21.047516,2.375055
1677472163.187781,1677472163.632256,37.000000,0.000000,4264.743652,4234.102539,4288.461426,4261.666504,4260.512695,4272.563965,4279.230957,4291.666504,4275.897461,4268.461426,4472.948730,4496.794922,4344.871582,4434.358887,0.000000,4.000000,98.000000,,,,0.000000,4.000000,4.000000,4.000000,4.000000,4.000000,4.000000,4.000000,4.000000,4.000000,4.000000,4.000000,4.000000,4.000000,4.000000,100.000000,,,,,,,,,,,,,,,,,,,,,,,,,,,,
1677472163.195589,1677472163.640164,38.000000,0.000000,4251.666504,4227.948730,4278.846191,4259.358887,4257.179688,4272.948730,4279.871582,4285.641113,4271.538574,4256.922852,4462.692383,4486.794922,4338.717773,4415.512695,0.000000,4.000000,98.000000,,,,0.000000,4.000000,4.000000,4.000000,4.000000,4.000000,4.000000,4.000000,4.000000,4.000000,4.000000,4.000000,4.000000,4.000000,4.000000,100.000000,,,,,,,,,,,,,,,,,,,,,,,,,,,,
1677472163.203397,1677472163.647972,39.000000,0.000000,4243.205078,4219.358887,4272.179688,4255.128418,4262.820313,4273.974121,4279.743652,4282.948730,4265.256348,4242.948730,4455.897461,4479.487305,4326.025879,4401.153809,0.000000,4.000000,98.000000,,,,0.000000,4.000000,4.000000,4.000000,4.000000,4.000000,4.000000,4.000000,4.000000,4.000000,4.000000,4.000000,4.000000,4.000000,4.000000,100.000000,,,,,,,,,,,,,,,,,,,,,,,,,,,,
1677472163.211205,1677472163.655880,40.000000,0.000000,4244.358887,4214.743652,4264.743652,4249.230957,4266.153809,4270.384766,4276.922852,4273.717773,4262.051270,4244.230957,4450.384766,4471.666504,4316.538574,4400.897461,0.000000,4.000000,98.000000,,,,0.000000,4.000000,4.000000,4.000000,4.000000,4.000000,4.000000,4.000000,4.000000,4.000000,4.000000,4.000000,4.000000,4.000000,4.000000,100.000000,,,,,,,,,,,,,,,,,10.000000,0.000000,0.680673,-0.190857,-0.707275,-0.004395,0.979123,-0.265169,-0.002442,-114.291664,21.042765,2.354216
1677472163.219013,1677472163.663688,41.000000,0.000000,4243.846191,4220.769043,4262.307617,4250.256348,4262.436035,4264.487305,4275.897461,4265.128418,4261.410156,4248.077148,4445.897461,4467.948730,4316.538574,4394.743652,0.000000,4.000000,98.000000,,,,0.000000,4.000000,4.000000,4.000000,4.000000,4.000000,4.000000,4.000000,4.000000,4.000000,4.000000,4.000000,4.000000,4.000000,4.000000,100.000000,,,,,,,,,,,,,,,,,,,,,,,,,,,,
1677472163.226820,1677472163.671596,42.000000,0.000000,4241.794922,4229.230957,4269.871582,4255.641113,4263.205078,4266.153809,4273.846191,4272.563965,4260.769043,4244.358887,4454.487305,4472.179688,4325.512695,4399.230957,0.000000,4.000000,98.000000,,,,0.000000,4.000000,4.000000,4.000000,4.000000,4.000000,4.000000,4.000000,4.000000,4.000000,4.000000,4.000000,4.000000,4.000000,4.000000,100.000000,,,,,,,,,,,,,,,,,,,,,,,,,,,,
1677472163.234628,1677472163.679404,43.000000,0.000000,4245.256348,4230.769043,4272.051270,4257.307617,4267.051270,4272.692383,4270.769043,4278.717773,4262.436035,4243.846191,4460.897461,4473.205078,4331.410156,4404.102539,0.000000,4.000000,98.000000,,,,0.000000,4.000000,4.000000,4.000000,4.000000,4.000000,4.000000,4.000000,4.000000,4.000000,4.000000,4.000000,4.000000,4.000000,4.000000,100.000000,,,,,,,,,,,,,,,,,,,,,,,,,,,,
1677472163.242436,1677472163.687112,44.000000,0.000000,4236.922852,4213.205078,4261.025879,4250.769043,4262.563965,4270.897461,4272.692383,4275.512695,4264.358887,4243.461426,4445.641113,4465.256348,4306.794922,4378.461426,0.000000,4.000000,98.000000,,,,0.000000,4.000000,4.000000,4.000000,4.000000,4.000000,4.000000,4.000000,4.000000,4.000000,4.000000,4.000000,4.000000,4.000000,4.000000,100.000000,,,,,,,,,,,,,,,,,11.000000,0.000000,0.680264,-0.191833,-0.707397,-0.005432,0.954706,-0.254914,-0.023440,-114.312500,21.138489,2.352128
1677472163.250244,1677472163.694920,45.000000,0.000000,4224.615234,4199.102539,4253.077148,4245.384766,4253.205078,4263.717773,4272.563965,4277.051270,4264.358887,4242.179688,4439.358887,4462.820313,4291.538574,4373.974121,0.000000,4.000000,98.000000,,,,0.000000,4.000000,4.000000,4.000000,4.000000,4.000000,4.000000,4.000000,4.000000,4.000000,4.000000,4.000000,4.000000,4.000000,4.000000,100.000000,,,,,,,,,,,,,,,,,,,,,,,,,,,,
1677472163.258052,1677472163.702628,46.000000,0.000000,4238.974121,4213.461426,4262.948730,4249.871582,4254.230957,4262.436035,4271.410156,4282.820313,4271.538574,4253.589844,4466.666504,4479.487305,4336.282227,4414.615234,0.000000,4.000000,98.000000,,,,0.000000,4.000000,4.000000,4.000000,4.000000,4.000000,4.000000,4.000000,4.000000,4.000000,4.000000,4.000000,4.000000,4.000000,4.000000,100.000000,,,,,,,,,,,,,,,,,,,,,,,,,,,,
1677472163.265860,1677472163.710436,47.000000,0.000000,4265.128418,4225.000000,4277.436035,4253.589844,4260.769043,4265.769043,4272.051270,4284.102539,4281.794922,4267.820313,4489.615234,4501.153809,4383.846191,4442.692383,0.000000,4.000000,98.000000,,,,0.000000,4.000000,4.000000,4.000000,4.000000,4.000000,4.000000,4.000000,4.000000,4.000000,4.000000,4.000000,4.000000,4.000000,4.000000,100.000000,,,,,,,,,,,,,,,,,,,,,,,,,,,,
1677472163.273668,1677472163.718144,48.000000,0.000000,4268.461426,4207.692383,4278.205078,4248.589844,4260.128418,4265.769043,4269.230957,4280.256348,4277.820313,4264.487305,4483.717773,4500.897461,4390.256348,4449.615234,0.000000,4.000000,98.000000,,,,0.000000,4.000000,4.000000,4.000000,4.000000,4.000000,4.000000,4.000000,4.000000,4.000000,4.000000,4.000000,4.000000,4.000000,4.000000,100.000000,,,,,,,,,,,,,,,,,12.000000,0.000000,0.679612,-0.193420,-0.707581,-0.006775,0.962031,-0.250519,-0.027835,-114.264580,20.991306,2.283582
1677472163.281476,1677472163.725952,49.000000,0.000000,4257.692383,4188.333496,4269.230957,4245.641113,4259.230957,4263.974121,4264.358887,4272.820313,4264.871582,4250.256348,4479.487305,4486.922852,4397.692383,4448.205078,0.000000,4.000000,98.000000,,,,0.000000,4.000000,4.000000,4.000000,4.000000,4.000000,4.000000,4.000000,4.000000,4.000000,4.000000,4.000000,4.000000,4.000000,4.000000,100.000000,,,,,,,,,,,,,,,,,,,,,,,,,,,,
1677472163.289284,1677472163.733660,50.000000,0.000000,4262.307617,4188.333496,4267.179688,4248.333496,4260.897461,4268.974121,4261.666504,4264.230957,4263.461426,4242.692383,4491.666504,4483.717773,4420.256348,4437.307617,0.000000,4.000000,98.000000,,,,0.000000,4.000000,4.000000,4.000000,4.000000,4.000000,4.000000,4.000000,4.000000,4.000000,4.000000,4.000000,4.000000,4.000000,4.000000,100.000000,,,,,,,,,,,,,,,,,,,,,,,,,,,,
1677472163.297091,1677472163.741468,51.000000,0.000000,4267.179688,4183.077148,4271.025879,4245.000000,4262.307617,4277.307617,4266.282227,4262.563965,4266.922852,4250.769043,4495.641113,4486.666504,4428.717773,4442.179688,0.000000,4.000000,98.000000,,,,0.000000,4.000000,4.000000,4.000000,4.000000,4.000000,4.000000,4.000000,4.000000,4.000000,4.000000,4.000000,4.000000,4.000000,4.000000,100.000000,,,,,,,,,,,,,,,,,,,,,,,,,,,,
1677472163.304899,1677472163.749176,52.000000,0.000000,4250.897461,4163.717773,4265.128418,4236.282227,4261.922852,4281.025879,4269.743652,4266.538574,4262.820313,4260.384766,4483.846191,4483.333496,4424.615234,4453.333496,0.000000,4.000000,98.000000,,,,0.000000,4.000000,4.000000,4.000000,4.000000,4.000000,4.000000,4.000000,4.000000,4.000000,4.000000,4.000000,4.000000,4.000000,4.000000,100.000000,,,,,,,,,,,,,,,,,13.000000,0.000000,0.679383,-0.195740,-0.707153,-0.007690,0.945428,-0.278843,-0.031742,-114.338127,21.008842,2.171890
1677472163.312707,1677472163.757084,53.000000,0.000000,4235.512695,4149.871582,4255.000000,4229.487305,4254.743652,4273.846191,4266.794922,4267.692383,4259.487305,4256.153809,4474.358887,4479.230957,4413.846191,4438.205078,0.000000,4.000000,98.000000,,,,0.000000,4.000000,4.000000,4.000000,4.000000,4.000000,4.000000,4.000000,4.000000,4.000000,4.000000,4.000000,4.000000,4.000000,4.000000,100.000000,,,,,,,,,,,,,,,,,,,,,,,,,,,,
1677472163.320515,1677472163.764892,54.000000,0.000000,4236.410156,4151.410156,4252.692383,4229.743652,4242.051270,4264.871582,4260.512695,4266.922852,4260.256348,4253.205078,4475.641113,4478.717773,4401.922852,4422.820313,0.000000,4.000000,98.000000,,,,0.000000,4.000000,4.000000,4.000000,4.000000,4.000000,4.000000,4.000000,4.000000,4.000000,4.000000,4.000000,4.000000,4.000000,4.000000,100.000000,,,,,,,,,,,,,,,,,,,,,,,,,,,,
1677472163.328323,1677472163.772800,55.000000,0.000000,4238.333496,4155.897461,4257.820313,4231.410156,4239.871582,4264.358887,4262.563965,4272.948730,4263.077148,4256.410156,4478.589844,4480.641113,4400.000000,4422.692383,0.000000,4.000000,98.000000,,,,0.000000,4.000000,4.000000,4.000000,4.000000,4.000000,4.000000,4.000000,4.000000,4.000000,4.000000,4.000000,4.000000,4.000000,4.000000,100.000000,,,,,,,,,,,,,,,,,,,,,,,,,,,,
1677472163.336131,1677472163.780608,56.000000,0.000000,4231.025879,4151.666504,4257.948730,4228.846191,4243.846191,4265.256348,4265.384766,4276.410156,4264.743652,4250.000000,4476.282227,4480.256348,4401.282227,4419.230957,0.000000,4.000000,98.000000,,,,0.000000,4.000000,4.000000,4.000000,4.000000,4.000000,4.000000,4.000000,4.000000,4.000000,4.000000,4.000000,4.000000,4.000000,4.000000,100.000000,,,,,,,,,,,,,,,,,14.000000,0.000000,0.679672,-0.197144,-0.706482,-0.007996,0.955683,-0.286656,-0.021487,-114.187645,20.907957,2.188035
1677472163.343939,1677472163.788515,57.000000,0.000000,4233.077148,4151.538574,4257.820313,4229.102539,4241.538574,4261.538574,4262.692383,4274.102539,4264.487305,4245.000000,4472.820313,4483.077148,4401.025879,4421.794922,0.000000,4.000000,98.000000,,,,0.000000,4.000000,4.000000,4.000000,4.000000,4.000000,4.000000,4.000000,4.000000,4.000000,4.000000,4.000000,4.000000,4.000000,4.000000,100.000000,,,,,,,,,,,,,,,,,,,,,,,,,,,,
1677472163.351747,1677472163.796323,58.000000,0.000000,4242.948730,4159.487305,4264.487305,4233.717773,4242.692383,4261.666504,4261.282227,4273.974121,4264.871582,4252.307617,4477.051270,4488.205078,4399.230957,4433.461426,0.000000,4.000000,98.000000,,,,0.000000,4.000000,4.000000,4.000000,4.000000,4.000000,4.000000,4.000000,4.000000,4.000000,4.000000,4.000000,4.000000,4.000000,4.000000,100.000000,,,,,,,,,,,,,,,,,,,,,,,,,,,,
1677472163.359555,1677472163.804231,59.000000,0.000000,4240.897461,4165.128418,4266.153809,4237.051270,4247.948730,4264.102539,4262.179688,4272.179688,4263.974121,4249.615234,4479.615234,4487.436035,4397.820313,4430.000000,0.000000,4.000000,98.000000,,,,0.000000,4.000000,4.000000,4.000000,4.000000,4.000000,4.000000,4.000000,4.000000,4.000000,4.000000,4.000000,4.000000,4.000000,4.000000,100.000000,,,,,,,,,,,,,,,,,,,,,,,,,,,,
1677472163.367362,1677472163.812039,60.000000,0.000000,4229.358887,4159.743652,4260.256348,4234.615234,4246.538574,4261.282227,4261.922852,4270.128418,4261.410156,4241.538574,4469.615234,4483.205078,4391.282227,4419.487305,0.000000,4.000000,98.000000,,,,0.000000,4.000000,4.000000,4.000000,4.000000,4.000000,4.000000,4.000000,4.000000,4.000000,4.000000,4.000000,4.000000,4.000000,4.000000,100.000000,,,,,,,,,,,,,,,,,15.000000,0.000000,0.680550,-0.200623,-0.704651,-0.008301,0.940544,-0.303748,-0.024905,-114.235550,20.750496,2.135898
1677472163.375170,1677472163.819947,61.000000,0.000000,4227.436035,4152.948730,4259.615234,4229.487305,4245.000000,4263.205078,4262.692383,4275.897461,4263.077148,4248.077148,4467.179688,4485.000000,4380.641113,4410.000000,0.000000,4.000000,98.000000,,,,0.000000,4.000000,4.000000,4.000000,4.000000,4.000000,4.000000,4.000000,4.000000,4.000000,4.000000,4.000000,4.000000,4.000000,4.000000,100.000000,,,,,,,,,,,,,,,,,,,,,,,,,,,,
1677472163.382978,1677472163.827755,62.000000,0.000000,4232.692383,4154.615234,4261.794922,4230.000000,4244.871582,4263.846191,4265.000000,4279.743652,4268.205078,4255.384766,4472.820313,4485.512695,4380.512695,4397.563965,0.000000,4.000000,98.000000,,,,0.000000,4.000000,4.000000,4.000000,4.000000,4.000000,4.000000,4.000000,4.000000,4.000000,4.000000,4.000000,4.000000,4.000000,4.000000,100.000000,,,,,,,,,,,,,,,,,,,,,,,,,,,,
1677472163.390786,1677472163.835663,63.000000,0.000000,4222.692383,4154.102539,4253.461426,4232.179688,4234.102539,4254.615234,4262.820313,4274.230957,4264.871582,4248.974121,4465.128418,4474.358887,4380.256348,4398.461426,0.000000,4.000000,98.000000,,,,0.000000,4.000000,4.000000,4.000000,4.000000,4.000000,4.000000,4.000000,4.000000,4.000000,4.000000,4.000000,4.000000,4.000000,4.000000,100.000000,,,,,,,,,,,,,,,,,,,,,,,,,,,,
1677472163.398594,1677472163.843471,64.000000,0.000000,4215.128418,4155.384766,4252.436035,4230.641113,4227.948730,4253.846191,4260.128418,4279.230957,4263.205078,4241.666504,4461.025879,4473.846191,4374.102539,4406.410156,5455.000000,4.000000,98.000000,,,,0.000000,4.000000,4.000000,4.000000,4.000000,4.000000,4.000000,4.000000,4.000000,4.000000,4.000000,4.000000,4.000000,4.000000,4.000000,100.000000,,,,,,,,,,,,,,,,,16.000000,0.000000,0.681511,-0.204590,-0.702576,-0.008545,0.948846,-0.311073,-0.020510,-114.395325,20.625446,2.355641
1677472163.406402,1677472163.851379,65.000000,0.000000,4228.589844,4165.897461,4263.717773,4231.794922,4236.153809,4261.794922,4262.436035,4290.897461,4273.461426,4248.717773,4474.743652,4489.487305,4381.794922,4409.871582,4819.000000,4.000000,98.000000,,,,0.000000,4.000000,4.000000,4.000000,4.000000,4.000000,4.000000,4.000000,4.000000,4.000000,4.000000,4.000000,4.000000,4.000000,4.000000,100.000000,,,,,,,,,,,,,,,,,,,,,,,,,,,,
1677472163.414210,1677472163.859187,66.000000,0.000000,4244.487305,4177.820313,4276.410156,4243.205078,4239.743652,4266.538574,4272.820313,4297.307617,4282.692383,4265.384766,4488.333496,4501.666504,4399.871582,4414.358887,5298.000000,4.000000,98.000000,,,,0.000000,4.000000,4.000000,4.000000,4.000000,4.000000,4.000000,4.000000,4.000000,4.000000,4.000000,4.000000,4.000000,4.000000,4.000000,100.000000,,,,,,,,,,,,,,,,,,,,,,,,,,,,
1677472163.422018,1677472163.866895,67.000000,0.000000,4250.512695,4186.794922,4284.487305,4252.436035,4239.358887,4268.205078,4280.512695,4297.820313,4282.051270,4265.000000,4488.846191,4505.384766,4403.333496,4411.794922,5487.000000,4.000000,98.000000,,,,0.000000,4.000000,4.000000,4.000000,4.000000,4.000000,4.000000,4.000000,4.000000,4.000000,4.000000,4.000000,4.000000,4.000000,4.000000,100.000000,,,,,,,,,,,,,,,,,,,,,,,,,,,,
1677472163.429826,1677472163.874703,68.000000,0.000000,4248.461426,4188.717773,4285.641113,4248.589844,4246.410156,4269.230957,4278.974121,4290.128418,4273.205078,4247.436035,4480.512695,4500.769043,4395.000000,4403.974121,4736.000000,4.000000,98.000000,,,,0.000000,4.000000,4.000000,4.000000,4.000000,4.000000,4.000000,4.000000,4.000000,4.000000,4.000000,4.000000,4.000000,4.000000,4.000000,100.000000,,,,,,,,,,,,,,,,,17.000000,0.000000,0.682436,-0.208557,-0.700500,-0.009155,0.979612,-0.299353,-0.013674,-114.372459,20.312901,2.386744
1677472163.437634,1677472163.882411,69.000000,0.000000,4245.641113,4185.128418,4283.461426,4246.153809,4256.153809,4273.077148,4274.102539,4279.871582,4262.948730,4249.615234,4473.077148,4488.717773,4389.743652,4409.230957,4914.000000,4.000000,98.000000,,,,0.000000,4.000000,4.000000,4.000000,4.000000,4.000000,4.000000,4.000000,4.000000,4.000000,4.000000,4.000000,4.000000,4.000000,4.000000,100.000000,,,,,,,,,,,,,,,,,,,,,,,,,,,,
1677472163.445441,1677472163.890219,70.000000,0.000000,4245.000000,4187.436035,4281.025879,4251.282227,4259.230957,4280.512695,4274.871582,4276.922852,4262.051270,4264.358887,4473.589844,4479.743652,4384.487305,4421.025879,3897.000000,4.000000,98.000000,,,,0.000000,4.000000,4.000000,4.000000,4.000000,4.000000,4.000000,4.000000,4.000000,4.000000,4.000000,4.000000,4.000000,4.000000,4.000000,100.000000,,,,,,,,,,,,,,,,,,,,,,,,,,,,
1677472163.453249,1677472163.897927,71.000000,0.000000,4241.794922,4190.512695,4277.563965,4251.538574,4258.717773,4280.769043,4275.512695,4276.794922,4272.179688,4262.948730,4472.563965,4480.641113,4380.769043,4411.538574,5053.000000,4.000000,98.000000,,,,0.000000,4.000000,4.000000,4.000000,4.000000,4.000000,4.000000,4.000000,4.000000,4.000000,4.000000,4.000000,4.000000,4.000000,4.000000,100.000000,,,,,,,,,,,,,,,,,,,,,,,,,,,,
1677472163.461057,1677472163.905835,72.000000,0.000000,4239.102539,4186.025879,4271.410156,4247.307617,4257.820313,4272.820313,4272.692383,4274.615234,4276.922852,4258.205078,4467.820313,4480.512695,4376.922852,4396.282227,4961.000000,4.000000,98.000000,,,,0.000000,4.000000,4.000000,4.000000,4.000000,4.000000,4.000000,4.000000,4.000000,4.000000,4.000000,4.000000,4.000000,4.000000,4.000000,100.000000,,,,,,,,,,,,,,,,,18.000000,0.000000,0.682804,-0.211975,-0.699097,-0.010437,0.973263,-0.264192,-0.042486,-114.318550,20.014944,2.481403
1677472163.468865,1677472163.913643,73.000000,0.000000,4238.846191,4188.717773,4268.205078,4248.974121,4260.128418,4274.615234,4270.769043,4278.846191,4273.077148,4253.846191,4469.230957,4477.948730,4374.358887,4397.563965,4620.000000,4.000000,98.000000,,,,0.000000,4.000000,4.000000,4.000000,4.000000,4.000000,4.000000,4.000000,4.000000,4.000000,4.000000,4.000000,4.000000,4.000000,4.000000,100.000000,,,,,,,,,,,,,,,,,,,,,,,,,,,,
1677472163.476673,1677472163.921451,74.000000,0.000000,4235.256348,4197.692383,4269.871582,4251.153809,4261.666504,4279.230957,4272.563965,4282.948730,4271.282227,4243.589844,4469.487305,4477.948730,4376.025879,4402.307617,6025.000000,4.000000,98.000000,,,,0.000000,4.000000,4.000000,4.000000,4.000000,4.000000,4.000000,4.000000,4.000000,4.000000,4.000000,4.000000,4.000000,4.000000,4.000000,100.000000,,,,,,,,,,,,,,,,,,,,,,,,,,,,
1677472163.484481,1677472163.929159,75.000000,0.000000,4236.153809,4198.589844,4272.692383,4248.589844,4260.256348,4277.820313,4276.794922,4281.922852,4275.384766,4249.358887,4473.461426,4481.666504,4378.589844,4401.282227,6314.000000,4.000000,98.000000,,,,0.000000,4.000000,4.000000,4.000000,4.000000,4.000000,4.000000,4.000000,4.000000,4.000000,4.000000,4.000000,4.000000,4.000000,4.000000,100.000000,,,,,,,,,,,,,,,,,,,,,,,,,,,,
1677472163.492289,1677472163.936967,76.000000,0.000000,4245.769043,4198.589844,4277.307617,4251.538574,4261.153809,4277.692383,4281.153809,4287.820313,4280.641113,4263.974121,4487.307617,4492.948730,4382.436035,4406.025879,5951.000000,4.000000,98.000000,,,,0.000000,4.000000,4.000000,4.000000,4.000000,4.000000,4.000000,4.000000,4.000000,4.000000,4.000000,4.000000,4.000000,4.000000,4.000000,100.000000,1.000000,100.000000,4.000000,4.000000,4.000000,4.000000,4.000000,4.000000,4.000000,4.000000,4.000000,4.000000,4.000000,4.000000,4.000000,4.000000,19.000000,0.000000,0.682115,-0.214722,-0.698914,-0.011536,0.963008,-0.262239,-0.041509,-114.070023,19.780117,2.683263
1677472163.500097,1677472163.944675,77.000000,0.000000,4248.846191,4202.051270,4282.563965,4253.846191,4257.820313,4276.922852,4280.000000,4292.436035,4281.538574,4264.230957,4493.717773,4500.512695,4390.256348,4431.025879,6654.000000,4.000000,98.000000,,,,0.000000,4.000000,4.000000,4.000000,4.000000,4.000000,4.000000,4.000000,4.000000,4.000000,4.000000,4.000000,4.000000,4.000000,4.000000,100.000000,,,,,,,,,,,,,,,,,,,,,,,,,,,,
1677472163.507905,1677472163.952483,78.000000,0.000000,4245.256348,4201.538574,4283.846191,4250.641113,4255.256348,4276.538574,4276.794922,4287.179688,4281.410156,4262.051270,4486.282227,4500.641113,4394.487305,4439.102539,6025.000000,4.000000,98.000000,,,,0.000000,4.000000,4.000000,4.000000,4.000000,4.000000,4.000000,4.000000,4.000000,4.000000,4.000000,4.000000,4.000000,4.000000,4.000000,100.000000,,,,,,,,,,,,,,,,,,,,,,,,,,,,
1677472163.515712,1677472163.960191,79.000000,0.000000,4245.256348,4203.589844,4279.230957,4252.692383,4261.538574,4280.256348,4276.922852,4279.615234,4276.025879,4258.333496,4479.230957,4497.692383,4385.128418,4415.128418,6314.000000,4.000000,98.000000,,,,0.000000,4.000000,4.000000,4.000000,4.000000,4.000000,4.000000,4.000000,4.000000,4.000000,4.000000,4.000000,4.000000,4.000000,4.000000,100.000000,,,,,,,,,,,,,,,,,,,,,,,,,,,,
1677472163.523520,1677472163.968099,80.000000,0.000000,4241.410156,4204.615234,4272.563965,4254.358887,4266.410156,4282.820313,4272.820313,4276.794922,4266.025879,4246.025879,4479.230957,4485.384766,4371.282227,4402.436035,5951.000000,4.000000,98.000000,,,,0.000000,4.000000,4.000000,4.000000,4.000000,4.000000,4.000000,4.000000,4.000000,4.000000,4.000000,4.000000,4.000000,4.000000,4.000000,100.000000,,,,,,,,,,,,,,,,,20.000000,0.000000,0.681528,-0.216553,-0.698914,-0.012024,0.940544,-0.279331,-0.026859,-114.329689,19.518772,2.731603
1677472163.531328,1677472163.975907,81.000000,0.000000,4227.307617,4193.333496,4261.538574,4247.179688,4262.563965,4277.948730,4265.000000,4270.897461,4260.512695,4237.307617,4471.410156,4470.256348,4361.538574,4395.897461,6654.000000,4.000000,98.000000,,,,0.000000,4.000000,4.000000,4.000000,4.000000,4.000000,4.000000,4.000000,4.000000,4.000000,4.000000,4.000000,4.000000,4.000000,4.000000,100.000000,,,,,,,,,,,,,,,,,,,,,,,,,,,,
1677472163.539136,1677472163.983815,82.000000,0.000000,4219.743652,4185.897461,4251.538574,4243.333496,4256.666504,4271.666504,4262.307617,4265.897461,4261.025879,4234.615234,4460.769043,4466.794922,4352.948730,4381.666504,6025.000000,4.000000,98.000000,,,,0.000000,4.000000,4.000000,4.000000,4.000000,4.000000,4.000000,4.000000,4.000000,4.000000,4.000000,4.000000,4.000000,4.000000,4.000000,100.000000,,,,,,,,,,,,,,,,,,,,,,,,,,,,
1677472163.546944,1677472163.991622,83.000000,0.000000,4227.692383,4196.922852,4257.948730,4248.846191,4254.102539,4270.128418,4265.512695,4271.666504,4264.615234,4235.512695,4465.769043,4474.358887,4354.487305,4389.230957,6314.000000,4.000000,98.000000,,,,0.000000,4.000000,4.000000,4.000000,4.000000,4.000000,4.000000,4.000000,4.000000,4.000000,4.000000,4.000000,4.000000,4.000000,4.000000,100.000000,,,,,,,,,,,,,,,,,,,,,,,,,,,,
1677472163.554752,1677472163.999530,84.000000,0.000000,4231.922852,4204.230957,4261.922852,4249.743652,4252.563965,4265.384766,4258.077148,4270.897461,4262.307617,4242.179688,4467.436035,4471.282227,4358.974121,4403.333496,5951.000000,4.000000,98.000000,,,,0.000000,4.000000,4.000000,4.000000,4.000000,4.000000,4.000000,4.000000,4.000000,4.000000,4.000000,4.000000,4.000000,4.000000,4.000000,100.000000,,,,,,,,,,,,,,,,,21.000000,0.000000,0.681527,-0.218323,-0.698364,-0.011963,0.947870,-0.267611,-0.034184,-114.330055,19.133562,2.708443
1677472163.562560,1677472164.007338,85.000000,0.000000,4222.436035,4189.743652,4254.743652,4245.384766,4248.589844,4258.717773,4252.692383,4261.538574,4258.717773,4246.153809,4457.820313,4467.948730,4348.589844,4383.589844,6654.000000,4.000000,98.000000,,,,0.000000,4.000000,4.000000,4.000000,4.000000,4.000000,4.000000,4.000000,4.000000,4.000000,4.000000,4.000000,4.000000,4.000000,4.000000,100.000000,,,,,,,,,,,,,,,,,,,,,,,,,,,,
1677472163.570368,1677472164.015246,86.000000,0.000000,4217.051270,4183.077148,4252.820313,4245.000000,4243.205078,4257.051270,4258.077148,4263.333496,4265.000000,4245.897461,4460.128418,4469.615234,4341.025879,4370.000000,6025.000000,4.000000,98.000000,,,,0.000000,4.000000,4.000000,4.000000,4.000000,4.000000,4.000000,4.000000,4.000000,4.000000,4.000000,4.000000,4.000000,4.000000,4.000000,100.000000,,,,,,,,,,,,,,,,,,,,,,,,,,,,
1677472163.578176,1677472164.023154,87.000000,0.000000,4227.307617,4198.974121,4257.692383,4247.179688,4242.820313,4258.077148,4263.461426,4272.436035,4275.128418,4252.563965,4478.077148,4472.563965,4360.256348,4398.461426,6314.000000,4.000000,98.000000,,,,0.000000,4.000000,4.000000,4.000000,4.000000,4.000000,4.000000,4.000000,4.000000,4.000000,4.000000,4.000000,4.000000,4.000000,4.000000,100.000000,,,,,,,,,,,,,,,,,,,,,,,,,,,,
1677472163.585983,1677472164.030962,88.000000,0.000000,4238.333496,4209.230957,4265.641113,4248.461426,4249.743652,4260.897461,4270.000000,4280.641113,4283.333496,4263.461426,4493.717773,4483.077148,4390.897461,4422.179688,5951.000000,4.000000,98.000000,,,,0.000000,4.000000,4.000000,4.000000,4.000000,4.000000,4.000000,4.000000,4.000000,4.000000,4.000000,4.000000,4.000000,4.000000,4.000000,100.000000,,,,,,,,,,,,,,,,,22.000000,0.000000,0.681748,-0.218994,-0.697937,-0.012024,0.968868,-0.256379,-0.030765,-114.330383,18.736872,2.937598
1677472163.593791,1677472164.038770,89.000000,0.000000,4242.948730,4202.820313,4275.256348,4251.666504,4249.358887,4265.769043,4278.717773,4289.487305,4289.743652,4268.717773,4498.717773,4493.589844,4396.922852,4416.282227,6654.000000,4.000000,98.000000,,,,0.000000,4.000000,4.000000,4.000000,4.000000,4.000000,4.000000,4.000000,4.000000,4.000000,4.000000,4.000000,4.000000,4.000000,4.000000,100.000000,,,,,,,,,,,,,,,,,,,,,,,,,,,,
1677472163.601599,1677472164.046478,90.000000,0.000000,4241.025879,4203.333496,4274.487305,4255.000000,4244.230957,4264.230957,4274.615234,4288.461426,4284.487305,4261.282227,4490.256348,4487.563965,4381.153809,4407.051270,6025.000000,4.000000,98.000000,,,,0.000000,4.000000,4.000000,4.000000,4.000000,4.000000,4.000000,4.000000,4.000000,4.000000,4.000000,4.000000,4.000000,4.000000,4.000000,100.000000,,,,,,,,,,,,,,,,,,,,,,,,,,,,
1677472163.609407,1677472164.054286,91.000000,0.000000,4236.538574,4210.384766,4271.922852,4256.922852,4253.077148,4264.743652,4264.743652,4279.230957,4276.282227,4257.307617,4481.794922,4479.487305,4372.692383,4413.717773,6314.000000,4.000000,98.000000,,,,0.000000,4.000000,4.000000,4.000000,4.000000,4.000000,4.000000,4.000000,4.000000,4.000000,4.000000,4.000000,4.000000,4.000000,4.000000,100.000000,,,,,,,,,,,,,,,,,,,,,,,,,,,,
1677472163.617215,1677472164.061994,92.000000,0.000000,4235.256348,4209.102539,4276.282227,4258.333496,4266.666504,4274.743652,4267.820313,4278.333496,4277.820313,4259.230957,4480.641113,4484.743652,4371.794922,4401.666504,5951.000000,4.000000,98.000000,,,,0.000000,4.000000,4.000000,4.000000,4.000000,4.000000,4.000000,4.000000,4.000000,4.000000,4.000000,4.000000,4.000000,4.000000,4.000000,100.000000,,,,,,,,,,,,,,,,,23.000000,0.000000,0.682508,-0.219727,-0.696960,-0.012207,0.959590,-0.264192,-0.028812,-114.397346,18.579851,3.127172
1677472163.625023,1677472164.069802,93.000000,0.000000,4225.128418,4199.487305,4263.589844,4253.205078,4260.897461,4273.461426,4269.102539,4271.794922,4270.512695,4241.794922,4468.461426,4475.384766,4355.769043,4360.512695,6654.000000,4.000000,98.000000,,,,0.000000,4.000000,4.000000,4.000000,4.000000,4.000000,4.000000,4.000000,4.000000,4.000000,4.000000,4.000000,4.000000,4.000000,4.000000,100.000000,,,,,,,,,,,,,,,,,,,,,,,,,,,,
1677472163.632831,1677472164.077510,94.000000,0.000000,4210.641113,4188.077148,4241.538574,4243.333496,4251.794922,4263.846191,4259.487305,4257.179688,4256.410156,4233.205078,4454.230957,4453.589844,4334.615234,4356.922852,6025.000000,4.000000,98.000000,,,,0.000000,4.000000,4.000000,4.000000,4.000000,4.000000,4.000000,4.000000,4.000000,4.000000,4.000000,4.000000,4.000000,4.000000,4.000000,100.000000,,,,,,,,,,,,,,,,,,,,,,,,,,,,
1677472163.640639,1677472164.085318,95.000000,0.000000,4214.487305,4190.128418,4244.230957,4242.563965,4263.333496,4272.820313,4256.410156,4255.256348,4257.179688,4254.743652,4458.589844,4454.487305,4339.102539,4392.179688,6314.000000,4.000000,98.000000,,,,0.000000,4.000000,4.000000,4.000000,4.000000,4.000000,4.000000,4.000000,4.000000,4.000000,4.000000,4.000000,4.000000,4.000000,4.000000,100.000000,,,,,,,,,,,,,,,,,,,,,,,,,,,,
1677472163.648447,1677472164.093026,96.000000,0.000000,4228.205078,4201.153809,4258.846191,4247.563965,4268.461426,4280.641113,4262.563965,4262.820313,4264.615234,4256.025879,4468.205078,4467.051270,4351.025879,4394.487305,5951.000000,4.000000,98.000000,,,,0.000000,4.000000,4.000000,4.000000,4.000000,4.000000,4.000000,4.000000,4.000000,4.000000,4.000000,4.000000,4.000000,4.000000,4.000000,100.000000,,,,,,,,,,,,,,,,,24.000000,0.000000,0.683677,-0.219727,-0.695801,-0.012939,0.972775,-0.238799,-0.022464,-114.407608,18.388533,3.247788
1677472163.656254,1677472164.100834,97.000000,0.000000,4232.563965,4202.692383,4263.077148,4250.641113,4254.102539,4267.179688,4262.948730,4265.128418,4261.794922,4238.717773,4471.153809,4470.769043,4352.563965,4379.615234,6654.000000,4.000000,98.000000,,,,0.000000,4.000000,4.000000,4.000000,4.000000,4.000000,4.000000,4.000000,4.000000,4.000000,4.000000,4.000000,4.000000,4.000000,4.000000,100.000000,,,,,,,,,,,,,,,,,,,,,,,,,,,,
1677472163.664062,1677472164.108542,98.000000,0.000000,4241.025879,4204.615234,4269.102539,4255.384766,4244.743652,4255.897461,4259.871582,4262.436035,4254.487305,4245.641113,4473.717773,4473.461426,4357.820313,4397.307617,6025.000000,4.000000,98.000000,,,,0.000000,4.000000,4.000000,4.000000,4.000000,4.000000,4.000000,4.000000,4.000000,4.000000,4.000000,4.000000,4.000000,4.000000,4.000000,100.000000,,,,,,,,,,,,,,,,,,,,,,,,,,,,
1677472163.671870,1677472164.116350,99.000000,0.000000,4248.589844,4211.025879,4272.820313,4255.512695,4241.794922,4259.230957,4260.000000,4262.948730,4254.871582,4251.282227,4476.153809,4477.307617,4360.897461,4410.769043,6314.000000,4.000000,98.000000,,,,0.000000,4.000000,4.000000,4.000000,4.000000,4.000000,4.000000,4.000000,4.000000,4.000000,4.000000,4.000000,4.000000,4.000000,4.000000,100.000000,,,,,,,,,,,,,,,,,,,,,,,,,,,,
1677472163.679678,1677472164.124058,100.000000,0.000000,4239.487305,4206.410156,4265.384766,4247.307617,4239.743652,4262.563965,4261.922852,4273.333496,4263.461426,4244.230957,4475.256348,4481.410156,4352.179688,4392.436035,5951.000000,4.000000,98.000000,,,,0.000000,4.000000,4.000000,4.000000,4.000000,4.000000,4.000000,4.000000,4.000000,4.000000,4.000000,4.000000,4.000000,4.000000,4.000000,100.000000,,,,,,,,,,,,,,,,,25.000000,0.000000,0.684664,-0.219910,-0.694763,-0.013367,0.986449,-0.265169,-0.018557,-114.200180,18.133013,3.356343
1677472163.687486,1677472164.131866,101.000000,0.000000,4227.436035,4193.974121,4256.666504,4240.000000,4245.512695,4263.717773,4262.436035,4279.871582,4270.128418,4256.410156,4471.025879,4483.077148,4347.436035,4389.871582,6654.000000,4.000000,98.000000,,,,0.000000,4.000000,4.000000,4.000000,4.000000,4.000000,4.000000,4.000000,4.000000,4.000000,4.000000,4.000000,4.000000,4.000000,4.000000,100.000000,,,,,,,,,,,,,,,,,,,,,,,,,,,,
1677472163.695294,1677472164.139574,102.000000,0.000000,4221.153809,4186.282227,4248.205078,4234.102539,4251.025879,4264.102539,4264.102539,4269.871582,4264.102539,4256.282227,4463.846191,4469.871582,4345.897461,4401.282227,6025.000000,4.000000,98.000000,,,,0.000000,4.000000,4.000000,4.000000,4.000000,4.000000,4.000000,4.000000,4.000000,4.000000,4.000000,4.000000,4.000000,4.000000,4.000000,100.000000,,,,,,,,,,,,,,,,,,,,,,,,,,,,
1677472163.703102,1677472164.147382,103.000000,0.000000,4212.307617,4181.282227,4238.205078,4230.641113,4246.410156,4262.692383,4258.205078,4254.615234,4253.846191,4235.897461,4452.179688,4448.589844,4330.128418,4379.871582,6314.000000,4.000000,98.000000,,,,0.000000,4.000000,4.000000,4.000000,4.000000,4.000000,4.000000,4.000000,4.000000,4.000000,4.000000,4.000000,4.000000,4.000000,4.000000,100.000000,,,,,,,,,,,,,,,,,,,,,,,,,,,,
1677472163.710910,1677472164.155090,104.000000,0.000000,4206.794922,4185.512695,4234.487305,4234.743652,4247.051270,4261.282227,4250.512695,4249.743652,4245.769043,4232.692383,4440.000000,4442.051270,4315.384766,4353.589844,5951.000000,4.000000,98.000000,,,,0.000000,4.000000,4.000000,4.000000,4.000000,4.000000,4.000000,4.000000,4.000000,4.000000,4.000000,4.000000,4.000000,4.000000,4.000000,100.000000,,,,,,,,,,,,,,,,,26.000000,0.000000,0.685647,-0.220703,-0.693542,-0.013306,0.965938,-0.259309,-0.004883,-114.113495,17.903046,3.454042
1677472163.718718,1677472164.162898,105.000000,0.000000,4218.461426,4201.666504,4243.333496,4247.436035,4259.743652,4264.358887,4256.794922,4256.794922,4245.769043,4243.846191,4447.563965,4451.666504,4323.205078,4373.205078,6654.000000,4.000000,98.000000,,,,0.000000,4.000000,4.000000,4.000000,4.000000,4.000000,4.000000,4.000000,4.000000,4.000000,4.000000,4.000000,4.000000,4.000000,4.000000,100.000000,,,,,,,,,,,,,,,,,,,,,,,,,,,,
1677472163.726526,1677472164.170606,106.000000,0.000000,4236.538574,4218.333496,4256.794922,4257.051270,4269.871582,4267.948730,4266.153809,4264.871582,4256.282227,4250.641113,4466.282227,4461.025879,4340.384766,4404.871582,6025.000000,4.000000,98.000000,,,,0.000000,4.000000,4.000000,4.000000,4.000000,4.000000,4.000000,4.000000,4.000000,4.000000,4.000000,4.000000,4.000000,4.000000,4.000000,100.000000,,,,,,,,,,,,,,,,,,,,,,,,,,,,
1677472163.734333,1677472164.178514,107.000000,0.000000,4241.666504,4221.282227,4257.948730,4254.615234,4263.333496,4263.333496,4259.487305,4265.000000,4263.077148,4240.641113,4466.666504,4460.000000,4341.922852,4395.897461,6314.000000,4.000000,98.000000,,,,0.000000,4.000000,4.000000,4.000000,4.000000,4.000000,4.000000,4.000000,4.000000,4.000000,4.000000,4.000000,4.000000,4.000000,4.000000,100.000000,,,,,,,,,,,,,,,,,,,,,,,,,,,,
