title:happy, start timestamp:1677472329.130398, stop timestamp:1677472390.103198, headset type:EPOCX, headset serial:E50201C8, headset firmware:720, channels:67, sampling rate:eeg_128;mot_32, samples:7810      , version:2.1, 
Timestamp,OriginalTimestamp,EEG.Counter,EEG.Interpolated,EEG.AF3,EEG.F7,EEG.F3,EEG.FC5,EEG.T7,EEG.P7,EEG.O1,EEG.O2,EEG.P8,EEG.T8,EEG.FC6,EEG.F4,EEG.F8,EEG.AF4,EEG.RawCq,EEG.Battery,EEG.BatteryPercent,MarkerIndex,MarkerType,MarkerValueInt,EEG.MarkerHardware,CQ.AF3,CQ.F7,CQ.F3,CQ.FC5,CQ.T7,CQ.P7,CQ.O1,CQ.O2,CQ.P8,CQ.T8,CQ.FC6,CQ.F4,CQ.F8,CQ.AF4,CQ.Overall,EQ.SampleRateQuality,EQ.OVERALL,EQ.AF3,EQ.F7,EQ.F3,EQ.FC5,EQ.T7,EQ.P7,EQ.O1,EQ.O2,EQ.P8,EQ.T8,EQ.FC6,EQ.F4,EQ.F8,EQ.AF4,MOT.CounterMems,MOT.InterpolatedMems,MOT.Q0,MOT.Q1,MOT.Q2,MOT.Q3,MOT.AccX,MOT.AccY,MOT.AccZ,MOT.MagX,MOT.MagY,MOT.MagZ
1677472329.130398,1677472329.130517,113.000000,0.000000,4226.538574,4212.051270,4252.051270,4246.410156,4244.487305,4276.025879,4263.717773,4283.846191,4474.358887,4237.692383,4454.358887,4450.897461,4323.333496,4396.538574,6775.000000,4.000000,98.000000,,,,0.000000,4.000000,4.000000,4.000000,4.000000,4.000000,4.000000,4.000000,4.000000,4.000000,4.000000,4.000000,4.000000,4.000000,4.000000,100.000000,,,,,,,,,,,,,,,,,,,,,,,,,,,,
1677472329.138207,1677472329.138225,114.000000,0.000000,4227.948730,4213.974121,4252.179688,4253.077148,4247.563965,4271.410156,4262.820313,4277.692383,4466.538574,4232.563965,4444.743652,4444.487305,4314.871582,4388.589844,6013.000000,4.000000,98.000000,,,,0.000000,4.000000,4.000000,4.000000,4.000000,4.000000,4.000000,4.000000,4.000000,4.000000,4.000000,4.000000,4.000000,4.000000,4.000000,100.000000,,,,,,,,,,,,,,,,,,,,,,,,,,,,
1677472329.146015,1677472329.146133,115.000000,0.000000,4234.230957,4222.307617,4264.358887,4261.410156,4257.948730,4268.846191,4269.487305,4280.769043,4465.128418,4232.692383,4449.743652,4452.051270,4318.077148,4387.948730,6279.000000,4.000000,98.000000,,,,0.000000,4.000000,4.000000,4.000000,4.000000,4.000000,4.000000,4.000000,4.000000,4.000000,4.000000,4.000000,4.000000,4.000000,4.000000,100.000000,,,,,,,,,,,,,,,,,,,,,,,,,,,,
1677472329.153823,1677472329.153941,116.000000,0.000000,4235.256348,4224.871582,4268.461426,4264.230957,4257.436035,4276.794922,4275.641113,4287.179688,4464.871582,4235.128418,4458.589844,4453.205078,4323.717773,4392.948730,6013.000000,4.000000,98.000000,,,,0.000000,4.000000,4.000000,4.000000,4.000000,4.000000,4.000000,4.000000,4.000000,4.000000,4.000000,4.000000,4.000000,4.000000,4.000000,100.000000,,,,,,,,,,,,,,,,,29.000000,0.000000,0.713424,-0.232788,-0.659241,-0.047302,0.968380,-0.267611,0.021975,-109.122749,25.457449,7.030229
1677472329.161631,1677472329.161849,117.000000,0.000000,4231.153809,4224.102539,4255.384766,4260.897461,4247.692383,4278.205078,4270.128418,4287.948730,4462.692383,4240.256348,4456.922852,4446.410156,4324.102539,4390.000000,6775.000000,4.000000,98.000000,,,,0.000000,4.000000,4.000000,4.000000,4.000000,4.000000,4.000000,4.000000,4.000000,4.000000,4.000000,4.000000,4.000000,4.000000,4.000000,100.000000,,,,,,,,,,,,,,,,,,,,,,,,,,,,
1677472329.169438,1677472329.169657,118.000000,0.000000,4233.461426,4227.563965,4256.153809,4260.897461,4244.487305,4270.512695,4265.512695,4291.538574,4463.589844,4247.692383,4459.615234,4449.102539,4331.153809,4395.256348,6013.000000,4.000000,98.000000,,,,0.000000,4.000000,4.000000,4.000000,4.000000,4.000000,4.000000,4.000000,4.000000,4.000000,4.000000,4.000000,4.000000,4.000000,4.000000,100.000000,,,,,,,,,,,,,,,,,,,,,,,,,,,,
1677472329.177247,1677472329.177465,119.000000,0.000000,4235.512695,4226.666504,4268.461426,4260.256348,4243.461426,4271.153809,4267.563965,4297.179688,4464.487305,4250.256348,4467.948730,4454.871582,4341.153809,4408.589844,6279.000000,4.000000,98.000000,,,,0.000000,4.000000,4.000000,4.000000,4.000000,4.000000,4.000000,4.000000,4.000000,4.000000,4.000000,4.000000,4.000000,4.000000,4.000000,100.000000,,,,,,,,,,,,,,,,,,,,,,,,,,,,
1677472329.185055,1677472329.185173,120.000000,0.000000,4230.769043,4218.717773,4265.641113,4253.077148,4236.153809,4275.769043,4268.333496,4295.897461,4461.153809,4249.615234,4468.846191,4453.846191,4339.871582,4405.256348,6013.000000,4.000000,98.000000,,,,0.000000,4.000000,4.000000,4.000000,4.000000,4.000000,4.000000,4.000000,4.000000,4.000000,4.000000,4.000000,4.000000,4.000000,4.000000,100.000000,,,,,,,,,,,,,,,,,30.000000,0.000000,0.713376,-0.232788,-0.659302,-0.047180,0.960078,-0.276889,0.021487,-109.010475,25.378370,6.943872
1677472329.192863,1677472329.193080,121.000000,0.000000,4228.589844,4214.102539,4257.051270,4248.974121,4230.769043,4275.641113,4267.692383,4293.846191,4459.871582,4251.025879,4469.358887,4450.512695,4337.436035,4393.333496,6775.000000,4.000000,98.000000,,,,0.000000,4.000000,4.000000,4.000000,4.000000,4.000000,4.000000,4.000000,4.000000,4.000000,4.000000,4.000000,4.000000,4.000000,4.000000,100.000000,,,,,,,,,,,,,,,,,,,,,,,,,,,,
1677472329.200671,1677472329.200888,122.000000,0.000000,4229.871582,4213.717773,4258.974121,4248.077148,4231.922852,4276.922852,4275.512695,4297.948730,4457.307617,4248.717773,4473.077148,4453.717773,4340.256348,4396.794922,6013.000000,4.000000,98.000000,,,,0.000000,4.000000,4.000000,4.000000,4.000000,4.000000,4.000000,4.000000,4.000000,4.000000,4.000000,4.000000,4.000000,4.000000,4.000000,100.000000,,,,,,,,,,,,,,,,,,,,,,,,,,,,
1677472329.208479,1677472329.208796,123.000000,0.000000,4231.282227,4212.692383,4264.615234,4246.410156,4233.717773,4280.128418,4280.641113,4301.666504,4451.794922,4250.256348,4476.153809,4464.487305,4346.538574,4409.102539,6279.000000,4.000000,98.000000,,,,0.000000,4.000000,4.000000,4.000000,4.000000,4.000000,4.000000,4.000000,4.000000,4.000000,4.000000,4.000000,4.000000,4.000000,4.000000,100.000000,,,,,,,,,,,,,,,,,,,,,,,,,,,,
1677472329.216287,1677472329.216604,124.000000,0.000000,4241.282227,4213.974121,4273.717773,4248.461426,4232.948730,4276.025879,4278.333496,4303.974121,4448.589844,4258.717773,4483.333496,4477.692383,4353.846191,4418.205078,6013.000000,4.000000,98.000000,,,,0.000000,4.000000,4.000000,4.000000,4.000000,4.000000,4.000000,4.000000,4.000000,4.000000,4.000000,4.000000,4.000000,4.000000,4.000000,100.000000,,,,,,,,,,,,,,,,,31.000000,0.000000,0.713460,-0.232727,-0.659241,-0.047058,0.956171,-0.272494,0.022464,-109.076096,25.340532,6.899485
1677472329.224095,1677472329.224512,125.000000,0.000000,4257.307617,4222.948730,4283.077148,4258.461426,4234.102539,4271.282227,4278.333496,4303.846191,4446.794922,4258.461426,4486.922852,4483.333496,4356.538574,4432.563965,6775.000000,4.000000,98.000000,,,,0.000000,4.000000,4.000000,4.000000,4.000000,4.000000,4.000000,4.000000,4.000000,4.000000,4.000000,4.000000,4.000000,4.000000,4.000000,100.000000,,,,,,,,,,,,,,,,,,,,,,,,,,,,
1677472329.231903,1677472329.232320,126.000000,0.000000,4264.230957,4232.820313,4285.769043,4266.153809,4241.025879,4271.666504,4280.897461,4298.589844,4441.282227,4249.358887,4481.538574,4481.794922,4356.282227,4448.717773,6013.000000,4.000000,98.000000,,,,0.000000,4.000000,4.000000,4.000000,4.000000,4.000000,4.000000,4.000000,4.000000,4.000000,4.000000,4.000000,4.000000,4.000000,4.000000,100.000000,,,,,,,,,,,,,,,,,,,,,,,,,,,,
1677472329.239711,1677472329.240228,127.000000,0.000000,4262.948730,4237.692383,4287.051270,4267.179688,4248.205078,4274.358887,4283.077148,4297.051270,4434.230957,4248.461426,4480.256348,4485.128418,4356.666504,4446.282227,98.000000,4.000000,98.000000,,,,0.000000,4.000000,4.000000,4.000000,4.000000,4.000000,4.000000,4.000000,4.000000,4.000000,4.000000,4.000000,4.000000,4.000000,4.000000,100.000000,,,,,,,,,,,,,,,,,,,,,,,,,,,,
1677472329.247519,1677472329.248036,0.000000,0.000000,4258.589844,4233.846191,4285.384766,4265.256348,4245.000000,4274.871582,4277.436035,4297.307617,4424.615234,4249.487305,4478.589844,4483.846191,4351.666504,4427.563965,5447.000000,4.000000,98.000000,,,,0.000000,4.000000,4.000000,4.000000,4.000000,4.000000,4.000000,4.000000,4.000000,4.000000,4.000000,4.000000,4.000000,4.000000,4.000000,100.000000,,,,,,,,,,,,,,,,,0.000000,0.000000,0.713421,-0.233032,-0.659180,-0.046997,0.971798,-0.269076,0.026370,-109.168488,25.306480,7.076203
1677472329.255327,1677472329.255944,1.000000,0.000000,4250.384766,4225.256348,4273.974121,4257.820313,4238.717773,4268.461426,4268.333496,4290.641113,4410.769043,4239.102539,4465.512695,4468.461426,4339.230957,4413.589844,4827.000000,4.000000,98.000000,,,,0.000000,4.000000,4.000000,4.000000,4.000000,4.000000,4.000000,4.000000,4.000000,4.000000,4.000000,4.000000,4.000000,4.000000,4.000000,100.000000,,,,,,,,,,,,,,,,,,,,,,,,,,,,
1677472329.263135,1677472329.263751,2.000000,0.000000,4246.794922,4223.077148,4270.641113,4253.077148,4242.820313,4264.102539,4269.102539,4289.615234,4407.692383,4230.512695,4465.128418,4464.743652,4338.461426,4412.307617,5277.000000,4.000000,98.000000,,,,0.000000,4.000000,4.000000,4.000000,4.000000,4.000000,4.000000,4.000000,4.000000,4.000000,4.000000,4.000000,4.000000,4.000000,4.000000,100.000000,,,,,,,,,,,,,,,,,,,,,,,,,,,,
1677472329.270943,1677472329.271459,3.000000,0.000000,4250.256348,4223.846191,4279.487305,4256.922852,4248.589844,4264.358887,4273.846191,4295.512695,4412.692383,4235.256348,4475.256348,4477.948730,4346.922852,4412.948730,5465.000000,4.000000,98.000000,,,,0.000000,4.000000,4.000000,4.000000,4.000000,4.000000,4.000000,4.000000,4.000000,4.000000,4.000000,4.000000,4.000000,4.000000,4.000000,100.000000,,,,,,,,,,,,,,,,,,,,,,,,,,,,
1677472329.278751,1677472329.279367,4.000000,0.000000,4248.974121,4217.563965,4276.794922,4254.871582,4246.282227,4263.333496,4270.256348,4293.589844,4409.358887,4237.307617,4468.717773,4473.717773,4341.922852,4413.077148,4811.000000,4.000000,98.000000,,,,0.000000,4.000000,4.000000,4.000000,4.000000,4.000000,4.000000,4.000000,4.000000,4.000000,4.000000,4.000000,4.000000,4.000000,4.000000,100.000000,,,,,,,,,,,,,,,,,1.000000,0.000000,0.713248,-0.233215,-0.659302,-0.046997,0.970333,-0.272494,0.032719,-109.234970,25.309166,7.168583
1677472329.286559,1677472329.287175,5.000000,0.000000,4246.794922,4215.769043,4271.410156,4248.461426,4242.692383,4262.436035,4271.538574,4295.769043,4407.948730,4237.692383,4463.717773,4464.102539,4337.307617,4422.948730,4948.000000,4.000000,98.000000,,,,0.000000,4.000000,4.000000,4.000000,4.000000,4.000000,4.000000,4.000000,4.000000,4.000000,4.000000,4.000000,4.000000,4.000000,4.000000,100.000000,,,,,,,,,,,,,,,,,,,,,,,,,,,,
1677472329.294367,1677472329.294983,6.000000,0.000000,4246.922852,4220.897461,4275.512695,4253.333496,4245.384766,4265.769043,4277.948730,4302.307617,4414.230957,4242.820313,4469.743652,4471.282227,4341.153809,4427.692383,3877.000000,4.000000,98.000000,,,,0.000000,4.000000,4.000000,4.000000,4.000000,4.000000,4.000000,4.000000,4.000000,4.000000,4.000000,4.000000,4.000000,4.000000,4.000000,100.000000,,,,,,,,,,,,,,,,,,,,,,,,,,,,
1677472329.302175,1677472329.302691,7.000000,0.000000,4246.025879,4220.641113,4276.794922,4261.666504,4248.461426,4267.563965,4276.666504,4298.846191,4409.871582,4237.307617,4467.051270,4475.897461,4334.230957,4409.230957,5080.000000,4.000000,98.000000,,,,0.000000,4.000000,4.000000,4.000000,4.000000,4.000000,4.000000,4.000000,4.000000,4.000000,4.000000,4.000000,4.000000,4.000000,4.000000,100.000000,,,,,,,,,,,,,,,,,,,,,,,,,,,,
1677472329.309983,1677472329.310499,8.000000,0.000000,4247.436035,4221.538574,4271.922852,4262.563965,4250.128418,4267.563965,4272.051270,4293.974121,4398.846191,4229.487305,4461.666504,4468.461426,4326.410156,4400.384766,4978.000000,4.000000,98.000000,,,,0.000000,4.000000,4.000000,4.000000,4.000000,4.000000,4.000000,4.000000,4.000000,4.000000,4.000000,4.000000,4.000000,4.000000,4.000000,100.000000,,,,,,,,,,,,,,,,,2.000000,0.000000,0.713180,-0.233276,-0.659363,-0.046875,0.969845,-0.267122,0.024905,-109.194809,25.328249,7.151725
1677472329.317791,1677472329.318206,9.000000,0.000000,4244.487305,4222.820313,4269.102539,4258.589844,4250.897461,4266.666504,4268.717773,4293.205078,4397.307617,4233.461426,4464.615234,4466.410156,4329.230957,4407.051270,4729.000000,4.000000,98.000000,,,,0.000000,4.000000,4.000000,4.000000,4.000000,4.000000,4.000000,4.000000,4.000000,4.000000,4.000000,4.000000,4.000000,4.000000,4.000000,100.000000,,,,,,,,,,,,,,,,,,,,,,,,,,,,
1677472329.325599,1677472329.326014,10.000000,0.000000,4233.846191,4217.820313,4265.512695,4252.820313,4250.000000,4265.000000,4261.282227,4286.922852,4393.461426,4233.846191,4460.641113,4465.512695,4324.743652,4400.384766,6013.000000,4.000000,98.000000,,,,0.000000,4.000000,4.000000,4.000000,4.000000,4.000000,4.000000,4.000000,4.000000,4.000000,4.000000,4.000000,4.000000,4.000000,4.000000,100.000000,,,,,,,,,,,,,,,,,,,,,,,,,,,,
1677472329.333407,1677472329.333722,11.000000,0.000000,4230.128418,4216.282227,4263.717773,4250.128418,4249.487305,4263.589844,4260.128418,4280.641113,4382.051270,4226.282227,4453.205078,4459.102539,4318.461426,4397.307617,6279.000000,4.000000,98.000000,,,,0.000000,4.000000,4.000000,4.000000,4.000000,4.000000,4.000000,4.000000,4.000000,4.000000,4.000000,4.000000,4.000000,4.000000,4.000000,100.000000,,,,,,,,,,,,,,,,,,,,,,,,,,,,
1677472329.341215,1677472329.341530,12.000000,0.000000,4239.487305,4223.974121,4267.179688,4254.615234,4248.974121,4262.051270,4265.000000,4283.205078,4378.461426,4230.128418,4458.077148,4459.615234,4328.974121,4410.769043,6013.000000,4.000000,98.000000,,,,0.000000,4.000000,4.000000,4.000000,4.000000,4.000000,4.000000,4.000000,4.000000,4.000000,4.000000,4.000000,4.000000,4.000000,4.000000,100.000000,1.000000,66.666664,4.000000,4.000000,4.000000,4.000000,3.000000,4.000000,4.000000,4.000000,1.000000,4.000000,4.000000,4.000000,4.000000,4.000000,3.000000,0.000000,0.713224,-0.233398,-0.659302,-0.046448,0.958125,-0.276889,0.028812,-109.108658,25.262091,6.969886
1677472329.349023,1677472329.349237,13.000000,0.000000,4248.333496,4229.487305,4271.282227,4259.615234,4249.230957,4261.794922,4268.974121,4290.256348,4383.333496,4240.641113,4465.128418,4468.205078,4338.205078,4414.358887,6781.000000,4.000000,98.000000,,,,0.000000,4.000000,4.000000,4.000000,4.000000,4.000000,4.000000,4.000000,4.000000,4.000000,4.000000,4.000000,4.000000,4.000000,4.000000,100.000000,,,,,,,,,,,,,,,,,,,,,,,,,,,,
1677472329.356831,1677472329.357045,14.000000,0.000000,4246.922852,4225.256348,4272.436035,4256.025879,4248.077148,4264.358887,4269.102539,4291.282227,4381.153809,4239.230957,4464.358887,4468.333496,4331.922852,4411.282227,6013.000000,4.000000,98.000000,,,,0.000000,4.000000,4.000000,4.000000,4.000000,4.000000,4.000000,4.000000,4.000000,4.000000,4.000000,4.000000,4.000000,4.000000,4.000000,100.000000,,,,,,,,,,,,,,,,,,,,,,,,,,,,
1677472329.364639,1677472329.364753,15.000000,0.000000,4242.692383,4218.333496,4270.641113,4253.205078,4247.692383,4266.794922,4265.769043,4287.820313,4372.692383,4233.589844,4459.358887,4462.563965,4324.871582,4416.666504,6279.000000,4.000000,98.000000,,,,0.000000,4.000000,4.000000,4.000000,4.000000,4.000000,4.000000,4.000000,4.000000,4.000000,4.000000,4.000000,4.000000,4.000000,4.000000,100.000000,,,,,,,,,,,,,,,,,,,,,,,,,,,,
1677472329.372447,1677472329.372561,16.000000,0.000000,4244.230957,4217.563965,4270.000000,4254.487305,4247.307617,4266.922852,4265.384766,4289.615234,4370.000000,4233.461426,4457.820313,4466.025879,4324.230957,4409.871582,0.000000,4.000000,98.000000,,,,0.000000,4.000000,4.000000,4.000000,4.000000,4.000000,4.000000,4.000000,4.000000,4.000000,4.000000,4.000000,4.000000,4.000000,4.000000,100.000000,,,,,,,,,,,,,,,,,4.000000,0.000000,0.713055,-0.233643,-0.659424,-0.046082,0.975705,-0.295446,0.035649,-109.064461,25.185881,6.906230
1677472329.380255,1677472329.380269,17.000000,0.000000,4249.230957,4222.179688,4273.077148,4256.666504,4245.641113,4265.769043,4269.358887,4295.000000,4371.922852,4233.846191,4460.128418,4467.948730,4322.820313,4399.743652,0.000000,4.000000,98.000000,,,,0.000000,4.000000,4.000000,4.000000,4.000000,4.000000,4.000000,4.000000,4.000000,4.000000,4.000000,4.000000,4.000000,4.000000,4.000000,100.000000,,,,,,,,,,,,,,,,,,,,,,,,,,,,
1677472329.388063,1677472329.388176,18.000000,0.000000,4243.717773,4220.512695,4273.077148,4254.358887,4246.410156,4265.512695,4268.589844,4294.358887,4365.769043,4226.153809,4455.000000,4457.820313,4316.025879,4398.461426,0.000000,4.000000,98.000000,,,,0.000000,4.000000,4.000000,4.000000,4.000000,4.000000,4.000000,4.000000,4.000000,4.000000,4.000000,4.000000,4.000000,4.000000,4.000000,100.000000,,,,,,,,,,,,,,,,,,,,,,,,,,,,
1677472329.395871,1677472329.395984,19.000000,0.000000,4231.922852,4214.358887,4263.589844,4249.230957,4246.538574,4264.871582,4263.974121,4291.025879,4357.563965,4213.205078,4445.256348,4450.897461,4306.922852,4389.230957,0.000000,4.000000,98.000000,,,,0.000000,4.000000,4.000000,4.000000,4.000000,4.000000,4.000000,4.000000,4.000000,4.000000,4.000000,4.000000,4.000000,4.000000,4.000000,100.000000,,,,,,,,,,,,,,,,,,,,,,,,,,,,
1677472329.403679,1677472329.403892,20.000000,0.000000,4228.077148,4213.974121,4256.282227,4251.153809,4243.589844,4262.563965,4265.769043,4292.692383,4357.820313,4214.615234,4441.025879,4453.974121,4303.077148,4384.871582,0.000000,4.000000,98.000000,,,,0.000000,4.000000,4.000000,4.000000,4.000000,4.000000,4.000000,4.000000,4.000000,4.000000,4.000000,4.000000,4.000000,4.000000,4.000000,100.000000,,,,,,,,,,,,,,,,,5.000000,0.000000,0.712967,-0.233765,-0.659485,-0.045959,0.982542,-0.299841,0.015627,-109.124680,25.167294,6.832274
1677472329.411487,1677472329.411700,21.000000,0.000000,4234.102539,4220.256348,4261.282227,4257.436035,4243.589844,4264.487305,4271.025879,4294.871582,4360.000000,4230.897461,4443.333496,4457.692383,4305.000000,4395.769043,0.000000,4.000000,98.000000,,,,0.000000,4.000000,4.000000,4.000000,4.000000,4.000000,4.000000,4.000000,4.000000,4.000000,4.000000,4.000000,4.000000,4.000000,4.000000,100.000000,,,,,,,,,,,,,,,,,,,,,,,,,,,,
1677472329.419295,1677472329.419608,22.000000,0.000000,4242.179688,4227.179688,4273.589844,4262.051270,4248.717773,4273.077148,4277.179688,4299.743652,4364.743652,4238.974121,4451.538574,4466.410156,4311.666504,4401.410156,0.000000,4.000000,98.000000,,,,0.000000,4.000000,4.000000,4.000000,4.000000,4.000000,4.000000,4.000000,4.000000,4.000000,4.000000,4.000000,4.000000,4.000000,4.000000,100.000000,,,,,,,,,,,,,,,,,,,,,,,,,,,,
1677472329.427103,1677472329.427416,23.000000,0.000000,4240.641113,4228.461426,4273.717773,4263.333496,4251.282227,4272.948730,4274.871582,4302.307617,4369.871582,4234.743652,4459.487305,4472.179688,4317.436035,4395.897461,0.000000,4.000000,98.000000,,,,0.000000,4.000000,4.000000,4.000000,4.000000,4.000000,4.000000,4.000000,4.000000,4.000000,4.000000,4.000000,4.000000,4.000000,4.000000,100.000000,,,,,,,,,,,,,,,,,,,,,,,,,,,,
1677472329.434911,1677472329.435324,24.000000,0.000000,4232.948730,4224.743652,4262.051270,4262.820313,4250.000000,4266.282227,4268.461426,4295.641113,4362.692383,4229.743652,4454.871582,4464.487305,4314.102539,4396.282227,0.000000,4.000000,98.000000,,,,0.000000,4.000000,4.000000,4.000000,4.000000,4.000000,4.000000,4.000000,4.000000,4.000000,4.000000,4.000000,4.000000,4.000000,4.000000,100.000000,,,,,,,,,,,,,,,,,6.000000,0.000000,0.712714,-0.234192,-0.659607,-0.045959,0.956171,-0.299353,0.022464,-109.328880,25.133898,6.832380
1677472329.442719,1677472329.443131,25.000000,0.000000,4232.307617,4218.077148,4259.358887,4258.589844,4248.077148,4269.871582,4270.256348,4291.794922,4349.230957,4229.230957,4446.666504,4455.512695,4311.025879,4399.871582,0.000000,4.000000,98.000000,,,,0.000000,4.000000,4.000000,4.000000,4.000000,4.000000,4.000000,4.000000,4.000000,4.000000,4.000000,4.000000,4.000000,4.000000,4.000000,100.000000,,,,,,,,,,,,,,,,,,,,,,,,,,,,
1677472329.450527,1677472329.451039,26.000000,0.000000,4240.128418,4218.205078,4270.384766,4255.128418,4250.384766,4279.358887,4277.179688,4297.179688,4350.128418,4233.461426,4453.846191,4464.871582,4317.820313,4397.436035,0.000000,4.000000,98.000000,,,,0.000000,4.000000,4.000000,4.000000,4.000000,4.000000,4.000000,4.000000,4.000000,4.000000,4.000000,4.000000,4.000000,4.000000,4.000000,100.000000,,,,,,,,,,,,,,,,,,,,,,,,,,,,
1677472329.458335,1677472329.458847,27.000000,0.000000,4246.410156,4228.846191,4277.436035,4261.666504,4259.230957,4279.358887,4275.897461,4302.563965,4357.948730,4235.641113,4464.615234,4478.077148,4326.282227,4401.410156,0.000000,4.000000,98.000000,,,,0.000000,4.000000,4.000000,4.000000,4.000000,4.000000,4.000000,4.000000,4.000000,4.000000,4.000000,4.000000,4.000000,4.000000,4.000000,100.000000,,,,,,,,,,,,,,,,,,,,,,,,,,,,
1677472329.466143,1677472329.466555,28.000000,0.000000,4245.000000,4232.307617,4274.743652,4266.794922,4259.358887,4271.282227,4273.461426,4302.692383,4351.538574,4235.641113,4464.615234,4473.589844,4326.922852,4413.077148,0.000000,4.000000,98.000000,,,,0.000000,4.000000,4.000000,4.000000,4.000000,4.000000,4.000000,4.000000,4.000000,4.000000,4.000000,4.000000,4.000000,4.000000,4.000000,100.000000,,,,,,,,,,,,,,,,,7.000000,0.000000,0.712545,-0.234680,-0.659607,-0.046082,0.959101,-0.307166,0.025394,-109.379326,25.103842,6.699142
1677472329.473951,1677472329.474362,29.000000,0.000000,4238.974121,4222.692383,4271.922852,4261.153809,4249.871582,4267.051270,4273.333496,4301.025879,4341.922852,4240.000000,4463.717773,4466.538574,4326.794922,4417.563965,0.000000,4.000000,98.000000,,,,0.000000,4.000000,4.000000,4.000000,4.000000,4.000000,4.000000,4.000000,4.000000,4.000000,4.000000,4.000000,4.000000,4.000000,4.000000,100.000000,,,,,,,,,,,,,,,,,,,,,,,,,,,,
1677472329.481759,1677472329.482070,30.000000,0.000000,4236.025879,4218.461426,4269.871582,4254.230957,4246.794922,4266.922852,4270.256348,4299.358887,4341.794922,4243.974121,4463.205078,4471.282227,4327.179688,4407.307617,0.000000,4.000000,98.000000,,,,0.000000,4.000000,4.000000,4.000000,4.000000,4.000000,4.000000,4.000000,4.000000,4.000000,4.000000,4.000000,4.000000,4.000000,4.000000,100.000000,,,,,,,,,,,,,,,,,,,,,,,,,,,,
1677472329.489567,1677472329.489878,31.000000,0.000000,4231.794922,4219.615234,4264.615234,4252.563965,4247.051270,4263.846191,4268.717773,4300.000000,4340.256348,4241.153809,4456.794922,4467.820313,4321.025879,4395.512695,0.000000,4.000000,98.000000,,,,0.000000,4.000000,4.000000,4.000000,4.000000,4.000000,4.000000,4.000000,4.000000,4.000000,4.000000,4.000000,4.000000,4.000000,4.000000,100.000000,,,,,,,,,,,,,,,,,,,,,,,,,,,,
1677472329.497375,1677472329.497586,32.000000,0.000000,4226.410156,4217.820313,4263.205078,4255.128418,4246.538574,4266.538574,4273.205078,4306.794922,4341.538574,4244.230957,4459.615234,4466.025879,4322.820313,4404.615234,0.000000,4.000000,98.000000,,,,0.000000,4.000000,4.000000,4.000000,4.000000,4.000000,4.000000,4.000000,4.000000,4.000000,4.000000,4.000000,4.000000,4.000000,4.000000,100.000000,,,,,,,,,,,,,,,,,8.000000,0.000000,0.712272,-0.235046,-0.659729,-0.046692,0.972775,-0.295935,0.025394,-109.258057,25.043457,6.629228
1677472329.505183,1677472329.505394,33.000000,0.000000,4230.897461,4218.205078,4268.333496,4256.538574,4248.461426,4274.487305,4274.102539,4313.461426,4348.974121,4251.538574,4470.769043,4481.794922,4329.743652,4410.128418,0.000000,4.000000,98.000000,,,,0.000000,4.000000,4.000000,4.000000,4.000000,4.000000,4.000000,4.000000,4.000000,4.000000,4.000000,4.000000,4.000000,4.000000,4.000000,100.000000,,,,,,,,,,,,,,,,,,,,,,,,,,,,
1677472329.512991,1677472329.513101,34.000000,0.000000,4234.487305,4219.358887,4267.563965,4253.846191,4247.051270,4271.794922,4267.820313,4313.461426,4350.000000,4247.948730,4467.436035,4485.512695,4325.641113,4394.230957,0.000000,4.000000,98.000000,,,,0.000000,4.000000,4.000000,4.000000,4.000000,4.000000,4.000000,4.000000,4.000000,4.000000,4.000000,4.000000,4.000000,4.000000,4.000000,100.000000,,,,,,,,,,,,,,,,,,,,,,,,,,,,
1677472329.520799,1677472329.520909,35.000000,0.000000,4230.897461,4217.051270,4260.384766,4253.077148,4246.410156,4263.333496,4266.794922,4306.666504,4340.256348,4242.692383,4460.128418,4471.794922,4319.743652,4388.077148,0.000000,4.000000,98.000000,,,,0.000000,4.000000,4.000000,4.000000,4.000000,4.000000,4.000000,4.000000,4.000000,4.000000,4.000000,4.000000,4.000000,4.000000,4.000000,100.000000,,,,,,,,,,,,,,,,,,,,,,,,,,,,
1677472329.528607,1677472329.528617,36.000000,0.000000,4230.384766,4215.000000,4256.282227,4252.307617,4246.025879,4264.230957,4264.487305,4297.820313,4331.282227,4242.563965,4462.051270,4465.641113,4321.282227,4401.153809,0.000000,4.000000,98.000000,,,,0.000000,4.000000,4.000000,4.000000,4.000000,4.000000,4.000000,4.000000,4.000000,4.000000,4.000000,4.000000,4.000000,4.000000,4.000000,100.000000,,,,,,,,,,,,,,,,,9.000000,0.000000,0.711891,-0.234863,-0.660095,-0.048218,0.951288,-0.276401,0.007813,-109.132256,25.005777,6.832972
1677472329.536415,1677472329.536425,37.000000,0.000000,4228.205078,4209.743652,4253.589844,4245.641113,4237.820313,4263.589844,4252.948730,4289.743652,4324.871582,4239.871582,4458.974121,4461.410156,4316.538574,4401.410156,0.000000,4.000000,98.000000,,,,0.000000,4.000000,4.000000,4.000000,4.000000,4.000000,4.000000,4.000000,4.000000,4.000000,4.000000,4.000000,4.000000,4.000000,4.000000,100.000000,,,,,,,,,,,,,,,,,,,,,,,,,,,,
1677472329.544223,1677472329.544133,38.000000,0.000000,4224.102539,4207.051270,4251.410156,4240.769043,4235.897461,4257.307617,4246.794922,4280.128418,4319.102539,4236.794922,4450.769043,4455.128418,4308.461426,4392.051270,0.000000,4.000000,98.000000,,,,0.000000,4.000000,4.000000,4.000000,4.000000,4.000000,4.000000,4.000000,4.000000,4.000000,4.000000,4.000000,4.000000,4.000000,4.000000,100.000000,,,,,,,,,,,,,,,,,,,,,,,,,,,,
1677472329.552031,1677472329.551940,39.000000,0.000000,4235.128418,4215.641113,4261.410156,4247.948730,4245.512695,4260.512695,4256.922852,4277.563965,4320.256348,4243.461426,4454.615234,4462.436035,4316.794922,4403.974121,0.000000,4.000000,98.000000,,,,0.000000,4.000000,4.000000,4.000000,4.000000,4.000000,4.000000,4.000000,4.000000,4.000000,4.000000,4.000000,4.000000,4.000000,4.000000,100.000000,,,,,,,,,,,,,,,,,,,,,,,,,,,,
1677472329.559839,1677472329.559648,40.000000,0.000000,4249.102539,4227.820313,4278.461426,4259.230957,4252.563965,4266.794922,4268.077148,4289.487305,4323.974121,4252.692383,4468.333496,4477.820313,4332.820313,4419.487305,0.000000,4.000000,98.000000,,,,0.000000,4.000000,4.000000,4.000000,4.000000,4.000000,4.000000,4.000000,4.000000,4.000000,4.000000,4.000000,4.000000,4.000000,4.000000,100.000000,,,,,,,,,,,,,,,,,10.000000,0.000000,0.711414,-0.233826,-0.660828,-0.050232,0.959101,-0.251007,0.006348,-109.035698,25.038534,6.699675
1677472329.567647,1677472329.567556,41.000000,0.000000,4249.743652,4233.333496,4287.948730,4262.436035,4257.179688,4265.000000,4273.461426,4301.666504,4320.897461,4252.307617,4477.307617,4492.436035,4336.410156,4412.692383,0.000000,4.000000,98.000000,,,,0.000000,4.000000,4.000000,4.000000,4.000000,4.000000,4.000000,4.000000,4.000000,4.000000,4.000000,4.000000,4.000000,4.000000,4.000000,100.000000,,,,,,,,,,,,,,,,,,,,,,,,,,,,
1677472329.575456,1677472329.575364,42.000000,0.000000,4247.820313,4233.461426,4285.769043,4261.025879,4263.846191,4262.820313,4274.358887,4301.153809,4314.358887,4247.179688,4475.256348,4498.205078,4329.487305,4401.025879,0.000000,4.000000,98.000000,,,,0.000000,4.000000,4.000000,4.000000,4.000000,4.000000,4.000000,4.000000,4.000000,4.000000,4.000000,4.000000,4.000000,4.000000,4.000000,100.000000,,,,,,,,,,,,,,,,,,,,,,,,,,,,
1677472329.583264,1677472329.583272,43.000000,0.000000,4246.153809,4229.743652,4279.743652,4261.025879,4265.897461,4265.128418,4273.333496,4294.871582,4310.384766,4242.948730,4467.948730,4488.333496,4324.230957,4408.461426,0.000000,4.000000,98.000000,,,,0.000000,4.000000,4.000000,4.000000,4.000000,4.000000,4.000000,4.000000,4.000000,4.000000,4.000000,4.000000,4.000000,4.000000,4.000000,100.000000,,,,,,,,,,,,,,,,,,,,,,,,,,,,
1677472329.591071,1677472329.591080,44.000000,0.000000,4239.102539,4226.153809,4275.128418,4261.794922,4264.487305,4265.897461,4272.948730,4289.230957,4304.615234,4239.871582,4464.615234,4476.794922,4323.333496,4418.974121,0.000000,4.000000,98.000000,,,,0.000000,4.000000,4.000000,4.000000,4.000000,4.000000,4.000000,4.000000,4.000000,4.000000,4.000000,4.000000,4.000000,4.000000,4.000000,100.000000,,,,,,,,,,,,,,,,,11.000000,0.000000,0.711290,-0.232056,-0.661438,-0.052124,0.944451,-0.251007,0.014162,-109.082123,25.184681,6.629707
1677472329.598879,1677472329.598988,45.000000,0.000000,4235.128418,4228.846191,4269.487305,4261.538574,4262.820313,4266.538574,4272.051270,4287.179688,4295.641113,4237.692383,4461.538574,4474.487305,4319.230957,4412.436035,0.000000,4.000000,98.000000,,,,0.000000,4.000000,4.000000,4.000000,4.000000,4.000000,4.000000,4.000000,4.000000,4.000000,4.000000,4.000000,4.000000,4.000000,4.000000,100.000000,,,,,,,,,,,,,,,,,,,,,,,,,,,,
1677472329.606687,1677472329.606796,46.000000,0.000000,4237.563965,4231.794922,4264.230957,4261.153809,4266.153809,4273.333496,4270.769043,4284.615234,4293.205078,4235.256348,4458.205078,4473.974121,4313.333496,4409.102539,0.000000,4.000000,98.000000,,,,0.000000,4.000000,4.000000,4.000000,4.000000,4.000000,4.000000,4.000000,4.000000,4.000000,4.000000,4.000000,4.000000,4.000000,4.000000,100.000000,,,,,,,,,,,,,,,,,,,,,,,,,,,,
1677472329.614495,1677472329.614703,47.000000,0.000000,4238.077148,4228.461426,4262.948730,4262.179688,4272.436035,4277.051270,4272.436035,4283.205078,4291.794922,4235.256348,4461.153809,4471.538574,4314.487305,4411.153809,0.000000,4.000000,98.000000,,,,0.000000,4.000000,4.000000,4.000000,4.000000,4.000000,4.000000,4.000000,4.000000,4.000000,4.000000,4.000000,4.000000,4.000000,4.000000,100.000000,,,,,,,,,,,,,,,,,,,,,,,,,,,,
1677472329.622304,1677472329.622511,48.000000,0.000000,4229.230957,4225.897461,4260.897461,4258.333496,4268.461426,4270.128418,4273.077148,4284.230957,4286.794922,4234.743652,4457.820313,4464.230957,4314.358887,4400.512695,0.000000,4.000000,98.000000,,,,0.000000,4.000000,4.000000,4.000000,4.000000,4.000000,4.000000,4.000000,4.000000,4.000000,4.000000,4.000000,4.000000,4.000000,4.000000,100.000000,,,,,,,,,,,,,,,,,12.000000,0.000000,0.711259,-0.231140,-0.661743,-0.052734,0.963985,-0.247100,0.003418,-109.140579,25.466211,6.666736
1677472329.630112,1677472329.630319,49.000000,0.000000,4218.846191,4222.436035,4252.563965,4251.538574,4262.179688,4262.820313,4268.205078,4284.102539,4281.666504,4230.769043,4444.102539,4451.794922,4300.769043,4381.922852,0.000000,4.000000,98.000000,,,,0.000000,4.000000,4.000000,4.000000,4.000000,4.000000,4.000000,4.000000,4.000000,4.000000,4.000000,4.000000,4.000000,4.000000,4.000000,100.000000,,,,,,,,,,,,,,,,,,,,,,,,,,,,
1677472329.637920,1677472329.638127,50.000000,0.000000,4223.846191,4221.922852,4254.102539,4255.000000,4262.307617,4262.051270,4267.948730,4282.563965,4283.974121,4228.333496,4439.871582,4451.410156,4294.102539,4378.589844,0.000000,4.000000,98.000000,,,,0.000000,4.000000,4.000000,4.000000,4.000000,4.000000,4.000000,4.000000,4.000000,4.000000,4.000000,4.000000,4.000000,4.000000,4.000000,100.000000,,,,,,,,,,,,,,,,,,,,,,,,,,,,
1677472329.645728,1677472329.645935,51.000000,0.000000,4233.461426,4225.000000,4266.282227,4260.769043,4261.410156,4262.436035,4272.179688,4285.128418,4289.230957,4230.128418,4446.025879,4461.538574,4301.922852,4387.307617,0.000000,4.000000,98.000000,,,,0.000000,4.000000,4.000000,4.000000,4.000000,4.000000,4.000000,4.000000,4.000000,4.000000,4.000000,4.000000,4.000000,4.000000,4.000000,100.000000,,,,,,,,,,,,,,,,,,,,,,,,,,,,
1677472329.653535,1677472329.653743,52.000000,0.000000,4230.128418,4221.538574,4269.487305,4251.794922,4257.563965,4262.051270,4275.128418,4287.307617,4286.025879,4230.384766,4444.871582,4463.974121,4301.153809,4383.461426,0.000000,4.000000,98.000000,,,,0.000000,4.000000,4.000000,4.000000,4.000000,4.000000,4.000000,4.000000,4.000000,4.000000,4.000000,4.000000,4.000000,4.000000,4.000000,100.000000,,,,,,,,,,,,,,,,,13.000000,0.000000,0.711181,-0.229309,-0.662415,-0.053345,0.957636,-0.246124,-0.002442,-109.026520,25.636257,6.700063
1677472329.661344,1677472329.661551,53.000000,0.000000,4228.205078,4220.897461,4269.102539,4248.205078,4260.641113,4264.487305,4275.512695,4283.846191,4280.512695,4232.692383,4442.820313,4465.641113,4298.974121,4382.692383,0.000000,4.000000,98.000000,,,,0.000000,4.000000,4.000000,4.000000,4.000000,4.000000,4.000000,4.000000,4.000000,4.000000,4.000000,4.000000,4.000000,4.000000,4.000000,100.000000,,,,,,,,,,,,,,,,,,,,,,,,,,,,
1677472329.669152,1677472329.669359,54.000000,0.000000,4236.025879,4226.410156,4274.102539,4260.384766,4265.769043,4265.769043,4273.974121,4284.358887,4277.563965,4231.153809,4450.000000,4471.922852,4307.307617,4398.077148,0.000000,4.000000,98.000000,,,,0.000000,4.000000,4.000000,4.000000,4.000000,4.000000,4.000000,4.000000,4.000000,4.000000,4.000000,4.000000,4.000000,4.000000,4.000000,100.000000,,,,,,,,,,,,,,,,,,,,,,,,,,,,
1677472329.676960,1677472329.677167,55.000000,0.000000,4231.666504,4222.948730,4270.000000,4258.205078,4264.230957,4264.102539,4267.692383,4281.922852,4268.589844,4219.102539,4444.230957,4462.820313,4304.871582,4399.871582,0.000000,4.000000,98.000000,,,,0.000000,4.000000,4.000000,4.000000,4.000000,4.000000,4.000000,4.000000,4.000000,4.000000,4.000000,4.000000,4.000000,4.000000,4.000000,100.000000,,,,,,,,,,,,,,,,,,,,,,,,,,,,
1677472329.684768,1677472329.684975,56.000000,0.000000,4221.025879,4214.230957,4258.077148,4245.384766,4261.922852,4262.948730,4264.358887,4275.641113,4258.846191,4211.025879,4430.256348,4448.333496,4290.512695,4386.794922,0.000000,4.000000,98.000000,,,,0.000000,4.000000,4.000000,4.000000,4.000000,4.000000,4.000000,4.000000,4.000000,4.000000,4.000000,4.000000,4.000000,4.000000,4.000000,100.000000,,,,,,,,,,,,,,,,,14.000000,0.000000,0.711107,-0.227356,-0.663147,-0.053589,0.959590,-0.238310,-0.001465,-109.040535,25.872631,6.813390
1677472329.692576,1677472329.692783,57.000000,0.000000,4219.102539,4217.436035,4253.974121,4248.461426,4263.589844,4262.051270,4265.000000,4275.256348,4259.615234,4218.333496,4435.897461,4449.230957,4294.871582,4385.769043,0.000000,4.000000,98.000000,,,,0.000000,4.000000,4.000000,4.000000,4.000000,4.000000,4.000000,4.000000,4.000000,4.000000,4.000000,4.000000,4.000000,4.000000,4.000000,100.000000,,,,,,,,,,,,,,,,,,,,,,,,,,,,
1677472329.700384,1677472329.700591,58.000000,0.000000,4218.333496,4222.436035,4255.128418,4252.436035,4266.153809,4264.358887,4264.230957,4278.077148,4263.717773,4225.769043,4447.436035,4455.000000,4313.205078,4387.179688,0.000000,4.000000,98.000000,,,,0.000000,4.000000,4.000000,4.000000,4.000000,4.000000,4.000000,4.000000,4.000000,4.000000,4.000000,4.000000,4.000000,4.000000,4.000000,100.000000,,,,,,,,,,,,,,,,,,,,,,,,,,,,
1677472329.708192,1677472329.708399,59.000000,0.000000,4220.897461,4221.153809,4253.717773,4245.897461,4263.589844,4261.794922,4261.153809,4277.051270,4262.436035,4224.487305,4443.974121,4454.487305,4313.589844,4384.487305,0.000000,4.000000,98.000000,,,,0.000000,4.000000,4.000000,4.000000,4.000000,4.000000,4.000000,4.000000,4.000000,4.000000,4.000000,4.000000,4.000000,4.000000,4.000000,100.000000,,,,,,,,,,,,,,,,,,,,,,,,,,,,
1677472329.716000,1677472329.716207,60.000000,0.000000,4231.794922,4223.717773,4257.179688,4246.794922,4257.307617,4251.538574,4261.410156,4274.615234,4260.384766,4226.410156,4445.000000,4457.948730,4306.025879,4395.512695,0.000000,4.000000,98.000000,,,,0.000000,4.000000,4.000000,4.000000,4.000000,4.000000,4.000000,4.000000,4.000000,4.000000,4.000000,4.000000,4.000000,4.000000,4.000000,100.000000,,,,,,,,,,,,,,,,,15.000000,0.000000,0.711255,-0.226257,-0.663330,-0.054016,0.963008,-0.254426,0.027835,-109.186485,26.118702,6.832051
1677472329.723808,1677472329.724015,61.000000,0.000000,4242.948730,4229.871582,4263.717773,4256.666504,4255.897461,4253.333496,4264.487305,4278.077148,4262.692383,4235.000000,4460.256348,4470.000000,4322.563965,4411.025879,0.000000,4.000000,98.000000,,,,0.000000,4.000000,4.000000,4.000000,4.000000,4.000000,4.000000,4.000000,4.000000,4.000000,4.000000,4.000000,4.000000,4.000000,4.000000,100.000000,,,,,,,,,,,,,,,,,,,,,,,,,,,,
1677472329.731616,1677472329.731823,62.000000,0.000000,4258.077148,4242.307617,4273.077148,4260.769043,4259.358887,4262.179688,4265.641113,4280.897461,4264.358887,4237.563965,4465.769043,4480.897461,4343.461426,4424.487305,0.000000,4.000000,98.000000,,,,0.000000,4.000000,4.000000,4.000000,4.000000,4.000000,4.000000,4.000000,4.000000,4.000000,4.000000,4.000000,4.000000,4.000000,4.000000,100.000000,,,,,,,,,,,,,,,,,,,,,,,,,,,,
1677472329.739424,1677472329.739631,63.000000,0.000000,4280.128418,4263.589844,4286.666504,4265.512695,4261.282227,4259.743652,4263.846191,4280.256348,4260.897461,4232.820313,4461.153809,4485.641113,4342.051270,4445.256348,0.000000,4.000000,98.000000,,,,0.000000,4.000000,4.000000,4.000000,4.000000,4.000000,4.000000,4.000000,4.000000,4.000000,4.000000,4.000000,4.000000,4.000000,4.000000,100.000000,,,,,,,,,,,,,,,,,,,,,,,,,,,,
1677472329.747232,1677472329.747439,64.000000,0.000000,4298.333496,4281.922852,4294.615234,4272.948730,4259.358887,4258.589844,4265.641113,4278.717773,4256.282227,4230.512695,4461.410156,4488.461426,4338.589844,4467.820313,5450.000000,4.000000,98.000000,,,,0.000000,4.000000,4.000000,4.000000,4.000000,4.000000,4.000000,4.000000,4.000000,4.000000,4.000000,4.000000,4.000000,4.000000,4.000000,100.000000,,,,,,,,,,,,,,,,,16.000000,0.000000,0.711034,-0.226013,-0.663574,-0.054932,0.964473,-0.234892,0.032719,-109.367836,26.173498,6.848845
1677472329.755040,1677472329.755247,65.000000,0.000000,4313.461426,4299.615234,4299.358887,4279.487305,4264.743652,4265.641113,4269.743652,4279.871582,4252.948730,4231.410156,4463.461426,4493.205078,4346.922852,4484.230957,4827.000000,4.000000,98.000000,,,,0.000000,4.000000,4.000000,4.000000,4.000000,4.000000,4.000000,4.000000,4.000000,4.000000,4.000000,4.000000,4.000000,4.000000,4.000000,100.000000,,,,,,,,,,,,,,,,,,,,,,,,,,,,
1677472329.762848,1677472329.763055,66.000000,0.000000,4334.487305,4322.820313,4307.179688,4287.948730,4270.641113,4263.846191,4266.282227,4278.461426,4248.333496,4227.051270,4460.128418,4493.077148,4344.358887,4499.743652,5272.000000,4.000000,98.000000,,,,0.000000,4.000000,4.000000,4.000000,4.000000,4.000000,4.000000,4.000000,4.000000,4.000000,4.000000,4.000000,4.000000,4.000000,4.000000,100.000000,,,,,,,,,,,,,,,,,,,,,,,,,,,,
1677472329.770656,1677472329.770763,67.000000,0.000000,4353.717773,4336.153809,4315.897461,4296.666504,4269.743652,4260.256348,4265.000000,4277.436035,4247.307617,4221.153809,4455.641113,4494.743652,4329.487305,4519.615234,5462.000000,4.000000,98.000000,,,,0.000000,4.000000,4.000000,4.000000,4.000000,4.000000,4.000000,4.000000,4.000000,4.000000,4.000000,4.000000,4.000000,4.000000,4.000000,100.000000,,,,,,,,,,,,,,,,,,,,,,,,,,,,
1677472329.778464,1677472329.778671,68.000000,0.000000,4371.410156,4346.666504,4325.769043,4306.666504,4269.230957,4265.512695,4267.948730,4284.615234,4250.512695,4220.384766,4461.025879,4506.666504,4333.205078,4545.256348,4811.000000,4.000000,98.000000,,,,0.000000,4.000000,4.000000,4.000000,4.000000,4.000000,4.000000,4.000000,4.000000,4.000000,4.000000,4.000000,4.000000,4.000000,4.000000,100.000000,,,,,,,,,,,,,,,,,17.000000,0.000000,0.710686,-0.226196,-0.663818,-0.055725,0.980100,-0.247100,0.021487,-109.347717,26.422815,6.780628
1677472329.786272,1677472329.786479,69.000000,0.000000,4389.102539,4369.487305,4333.846191,4314.743652,4270.384766,4265.384766,4268.717773,4292.820313,4251.282227,4222.307617,4467.051270,4517.307617,4343.589844,4565.384766,4948.000000,4.000000,98.000000,,,,0.000000,4.000000,4.000000,4.000000,4.000000,4.000000,4.000000,4.000000,4.000000,4.000000,4.000000,4.000000,4.000000,4.000000,4.000000,100.000000,,,,,,,,,,,,,,,,,,,,,,,,,,,,
1677472329.794080,1677472329.794386,70.000000,0.000000,4396.025879,4382.692383,4335.512695,4314.230957,4273.589844,4265.384766,4271.666504,4293.333496,4248.205078,4226.282227,4468.589844,4522.051270,4338.077148,4567.436035,3891.000000,4.000000,98.000000,,,,0.000000,4.000000,4.000000,4.000000,4.000000,4.000000,4.000000,4.000000,4.000000,4.000000,4.000000,4.000000,4.000000,4.000000,4.000000,100.000000,,,,,,,,,,,,,,,,,,,,,,,,,,,,
1677472329.801888,1677472329.802194,71.000000,0.000000,4397.179688,4374.487305,4338.717773,4311.282227,4277.820313,4273.846191,4279.487305,4292.692383,4250.128418,4232.820313,4475.641113,4527.179688,4342.179688,4569.871582,5090.000000,4.000000,98.000000,,,,0.000000,4.000000,4.000000,4.000000,4.000000,4.000000,4.000000,4.000000,4.000000,4.000000,4.000000,4.000000,4.000000,4.000000,4.000000,100.000000,,,,,,,,,,,,,,,,,,,,,,,,,,,,
1677472329.809696,1677472329.810102,72.000000,0.000000,4403.974121,4375.769043,4345.641113,4314.487305,4278.974121,4279.615234,4280.256348,4297.051270,4259.358887,4233.846191,4485.128418,4531.538574,4363.461426,4587.948730,5001.000000,4.000000,98.000000,,,,0.000000,4.000000,4.000000,4.000000,4.000000,4.000000,4.000000,4.000000,4.000000,4.000000,4.000000,4.000000,4.000000,4.000000,4.000000,100.000000,,,,,,,,,,,,,,,,,18.000000,0.000000,0.710407,-0.225952,-0.664185,-0.055908,0.972775,-0.210475,0.030277,-109.362946,26.430534,6.785898
1677472329.817504,1677472329.817910,73.000000,0.000000,4407.820313,4384.871582,4349.487305,4318.846191,4281.153809,4279.358887,4279.871582,4297.692383,4259.871582,4231.410156,4486.666504,4536.922852,4368.846191,4590.128418,4736.000000,4.000000,98.000000,,,,0.000000,4.000000,4.000000,4.000000,4.000000,4.000000,4.000000,4.000000,4.000000,4.000000,4.000000,4.000000,4.000000,4.000000,4.000000,100.000000,,,,,,,,,,,,,,,,,,,,,,,,,,,,
1677472329.825312,1677472329.825817,74.000000,0.000000,4400.384766,4376.794922,4347.051270,4317.563965,4286.794922,4278.846191,4279.487305,4290.769043,4249.230957,4237.179688,4481.666504,4537.563965,4357.563965,4573.974121,6018.000000,4.000000,98.000000,,,,0.000000,4.000000,4.000000,4.000000,4.000000,4.000000,4.000000,4.000000,4.000000,4.000000,4.000000,4.000000,4.000000,4.000000,4.000000,100.000000,,,,,,,,,,,,,,,,,,,,,,,,,,,,
1677472329.833120,1677472329.833726,75.000000,0.000000,4395.000000,4366.794922,4342.436035,4317.307617,4286.666504,4280.000000,4274.230957,4289.358887,4246.666504,4243.974121,4482.948730,4530.512695,4363.589844,4571.666504,6279.000000,4.000000,98.000000,,,,0.000000,4.000000,4.000000,4.000000,4.000000,4.000000,4.000000,4.000000,4.000000,4.000000,4.000000,4.000000,4.000000,4.000000,4.000000,100.000000,,,,,,,,,,,,,,,,,,,,,,,,,,,,
1677472329.840928,1677472329.841534,76.000000,0.000000,4388.077148,4360.128418,4338.589844,4313.846191,4282.692383,4276.794922,4271.025879,4293.205078,4248.589844,4241.794922,4489.615234,4525.512695,4377.692383,4570.384766,6017.000000,4.000000,98.000000,,,,0.000000,4.000000,4.000000,4.000000,4.000000,4.000000,4.000000,4.000000,4.000000,4.000000,4.000000,4.000000,4.000000,4.000000,4.000000,100.000000,1.000000,75.000000,4.000000,4.000000,4.000000,4.000000,4.000000,4.000000,4.000000,4.000000,1.000000,4.000000,4.000000,4.000000,4.000000,4.000000,19.000000,0.000000,0.710391,-0.225403,-0.664368,-0.056152,0.966427,-0.223172,0.026859,-109.309982,26.537479,6.557309
1677472329.848736,1677472329.849342,77.000000,0.000000,4368.717773,4341.282227,4330.897461,4303.717773,4283.077148,4270.128418,4273.846191,4294.102539,4245.256348,4242.307617,4493.717773,4523.205078,4376.410156,4548.333496,6785.000000,4.000000,98.000000,,,,0.000000,4.000000,4.000000,4.000000,4.000000,4.000000,4.000000,4.000000,4.000000,4.000000,4.000000,4.000000,4.000000,4.000000,4.000000,100.000000,,,,,,,,,,,,,,,,,,,,,,,,,,,,
1677472329.856544,1677472329.857050,78.000000,0.000000,4352.179688,4316.922852,4318.077148,4292.692383,4281.025879,4264.743652,4272.179688,4289.743652,4247.948730,4251.282227,4489.230957,4512.307617,4369.871582,4528.333496,6018.000000,4.000000,98.000000,,,,0.000000,4.000000,4.000000,4.000000,4.000000,4.000000,4.000000,4.000000,4.000000,4.000000,4.000000,4.000000,4.000000,4.000000,4.000000,100.000000,,,,,,,,,,,,,,,,,,,,,,,,,,,,
1677472329.864352,1677472329.864857,79.000000,0.000000,4335.512695,4299.230957,4304.102539,4283.461426,4276.794922,4262.820313,4266.153809,4286.025879,4250.384766,4248.717773,4479.615234,4495.256348,4363.333496,4516.538574,6279.000000,4.000000,98.000000,,,,0.000000,4.000000,4.000000,4.000000,4.000000,4.000000,4.000000,4.000000,4.000000,4.000000,4.000000,4.000000,4.000000,4.000000,4.000000,100.000000,,,,,,,,,,,,,,,,,,,,,,,,,,,,
1677472329.872160,1677472329.872565,80.000000,0.000000,4311.922852,4283.333496,4293.205078,4278.717773,4276.282227,4262.948730,4263.846191,4284.871582,4239.230957,4239.102539,4475.128418,4486.025879,4354.102539,4492.436035,6017.000000,4.000000,98.000000,,,,0.000000,4.000000,4.000000,4.000000,4.000000,4.000000,4.000000,4.000000,4.000000,4.000000,4.000000,4.000000,4.000000,4.000000,4.000000,100.000000,,,,,,,,,,,,,,,,,20.000000,0.000000,0.710298,-0.223816,-0.664978,-0.056458,0.960566,-0.216823,0.027347,-109.328987,26.650398,6.534911
1677472329.879968,1677472329.880373,81.000000,0.000000,4297.051270,4265.384766,4289.230957,4272.307617,4275.769043,4263.205078,4268.589844,4285.256348,4232.179688,4241.025879,4468.333496,4485.769043,4343.205078,4466.538574,6785.000000,4.000000,98.000000,,,,0.000000,4.000000,4.000000,4.000000,4.000000,4.000000,4.000000,4.000000,4.000000,4.000000,4.000000,4.000000,4.000000,4.000000,4.000000,100.000000,,,,,,,,,,,,,,,,,,,,,,,,,,,,
1677472329.887776,1677472329.888081,82.000000,0.000000,4292.436035,4252.948730,4288.974121,4264.615234,4275.384766,4263.461426,4273.333496,4284.230957,4236.025879,4241.025879,4461.538574,4485.000000,4336.538574,4454.871582,6018.000000,4.000000,98.000000,,,,0.000000,4.000000,4.000000,4.000000,4.000000,4.000000,4.000000,4.000000,4.000000,4.000000,4.000000,4.000000,4.000000,4.000000,4.000000,100.000000,,,,,,,,,,,,,,,,,,,,,,,,,,,,
1677472329.895584,1677472329.895989,83.000000,0.000000,4277.051270,4243.589844,4278.846191,4261.153809,4273.974121,4263.461426,4269.102539,4281.538574,4235.384766,4232.820313,4461.282227,4478.846191,4329.743652,4442.820313,6279.000000,4.000000,98.000000,,,,0.000000,4.000000,4.000000,4.000000,4.000000,4.000000,4.000000,4.000000,4.000000,4.000000,4.000000,4.000000,4.000000,4.000000,4.000000,100.000000,,,,,,,,,,,,,,,,,,,,,,,,,,,,
1677472329.903392,1677472329.903797,84.000000,0.000000,4257.948730,4228.333496,4268.333496,4258.077148,4271.666504,4261.410156,4264.230957,4280.384766,4229.615234,4229.743652,4456.282227,4468.333496,4315.128418,4420.641113,6017.000000,4.000000,98.000000,,,,0.000000,4.000000,4.000000,4.000000,4.000000,4.000000,4.000000,4.000000,4.000000,4.000000,4.000000,4.000000,4.000000,4.000000,4.000000,100.000000,,,,,,,,,,,,,,,,,21.000000,0.000000,0.710196,-0.222290,-0.665588,-0.056580,0.968380,-0.236845,0.031254,-109.196091,26.785358,6.581420
1677472329.911200,1677472329.911605,85.000000,0.000000,4248.974121,4216.025879,4268.461426,4251.282227,4269.743652,4259.871582,4263.205078,4281.666504,4230.641113,4232.307617,4449.102539,4462.563965,4307.820313,4401.025879,6785.000000,4.000000,98.000000,,,,0.000000,4.000000,4.000000,4.000000,4.000000,4.000000,4.000000,4.000000,4.000000,4.000000,4.000000,4.000000,4.000000,4.000000,4.000000,100.000000,,,,,,,,,,,,,,,,,,,,,,,,,,,,
1677472329.919008,1677472329.919313,86.000000,0.000000,4238.589844,4214.230957,4265.897461,4247.051270,4269.743652,4261.282227,4262.820313,4284.358887,4235.000000,4233.589844,4453.077148,4462.307617,4310.897461,4396.410156,6018.000000,4.000000,98.000000,,,,0.000000,4.000000,4.000000,4.000000,4.000000,4.000000,4.000000,4.000000,4.000000,4.000000,4.000000,4.000000,4.000000,4.000000,4.000000,100.000000,,,,,,,,,,,,,,,,,,,,,,,,,,,,
1677472329.926816,1677472329.927120,87.000000,0.000000,4230.641113,4216.153809,4257.563965,4249.743652,4272.307617,4263.205078,4262.820313,4283.077148,4230.897461,4237.307617,4455.256348,4459.615234,4311.025879,4391.922852,6279.000000,4.000000,98.000000,,,,0.000000,4.000000,4.000000,4.000000,4.000000,4.000000,4.000000,4.000000,4.000000,4.000000,4.000000,4.000000,4.000000,4.000000,4.000000,100.000000,,,,,,,,,,,,,,,,,,,,,,,,,,,,
1677472329.934624,1677472329.934828,88.000000,0.000000,4231.282227,4212.307617,4259.230957,4251.410156,4270.769043,4264.487305,4265.256348,4278.846191,4221.282227,4238.974121,4452.948730,4458.589844,4309.358887,4380.128418,6017.000000,4.000000,98.000000,,,,0.000000,4.000000,4.000000,4.000000,4.000000,4.000000,4.000000,4.000000,4.000000,4.000000,4.000000,4.000000,4.000000,4.000000,4.000000,100.000000,,,,,,,,,,,,,,,,,22.000000,0.000000,0.710343,-0.221436,-0.665710,-0.056641,0.967892,-0.261751,0.049322,-109.226479,26.873489,6.356611
1677472329.942432,1677472329.942636,89.000000,0.000000,4226.282227,4204.487305,4260.512695,4249.615234,4265.000000,4260.769043,4263.846191,4275.512695,4218.077148,4233.461426,4454.230957,4457.179688,4307.948730,4374.743652,6785.000000,4.000000,98.000000,,,,0.000000,4.000000,4.000000,4.000000,4.000000,4.000000,4.000000,4.000000,4.000000,4.000000,4.000000,4.000000,4.000000,4.000000,4.000000,100.000000,,,,,,,,,,,,,,,,,,,,,,,,,,,,
1677472329.950240,1677472329.950344,90.000000,0.000000,4215.256348,4199.487305,4249.743652,4245.641113,4262.692383,4253.974121,4261.666504,4272.307617,4217.179688,4231.025879,4449.615234,4452.179688,4301.282227,4372.820313,6018.000000,4.000000,98.000000,,,,0.000000,4.000000,4.000000,4.000000,4.000000,4.000000,4.000000,4.000000,4.000000,4.000000,4.000000,4.000000,4.000000,4.000000,4.000000,100.000000,,,,,,,,,,,,,,,,,,,,,,,,,,,,
1677472329.958048,1677472329.958252,91.000000,0.000000,4208.846191,4199.615234,4243.205078,4241.410156,4263.461426,4254.743652,4261.025879,4272.051270,4214.871582,4231.025879,4441.538574,4449.230957,4296.666504,4365.384766,6279.000000,4.000000,98.000000,,,,0.000000,4.000000,4.000000,4.000000,4.000000,4.000000,4.000000,4.000000,4.000000,4.000000,4.000000,4.000000,4.000000,4.000000,4.000000,100.000000,,,,,,,,,,,,,,,,,,,,,,,,,,,,
1677472329.965856,1677472329.966059,92.000000,0.000000,4205.769043,4199.743652,4245.897461,4243.077148,4261.666504,4262.436035,4265.128418,4282.563965,4225.384766,4234.743652,4445.897461,4454.487305,4301.794922,4357.179688,6017.000000,4.000000,98.000000,,,,0.000000,4.000000,4.000000,4.000000,4.000000,4.000000,4.000000,4.000000,4.000000,4.000000,4.000000,4.000000,4.000000,4.000000,4.000000,100.000000,,,,,,,,,,,,,,,,,23.000000,0.000000,0.710334,-0.221558,-0.665710,-0.056274,0.994750,-0.248077,0.040044,-109.170494,27.169474,6.404284
1677472329.973664,1677472329.973967,93.000000,0.000000,4198.589844,4192.692383,4244.102539,4244.615234,4261.666504,4264.615234,4269.102539,4291.794922,4235.512695,4237.563965,4450.256348,4450.897461,4301.282227,4352.051270,6785.000000,4.000000,98.000000,,,,0.000000,4.000000,4.000000,4.000000,4.000000,4.000000,4.000000,4.000000,4.000000,4.000000,4.000000,4.000000,4.000000,4.000000,4.000000,100.000000,,,,,,,,,,,,,,,,,,,,,,,,,,,,
1677472329.981472,1677472329.981775,94.000000,0.000000,4188.717773,4185.000000,4239.358887,4238.205078,4261.153809,4263.333496,4268.589844,4287.307617,4223.589844,4232.563965,4445.128418,4443.589844,4295.256348,4345.000000,6018.000000,4.000000,98.000000,,,,0.000000,4.000000,4.000000,4.000000,4.000000,4.000000,4.000000,4.000000,4.000000,4.000000,4.000000,4.000000,4.000000,4.000000,4.000000,100.000000,,,,,,,,,,,,,,,,,,,,,,,,,,,,
1677472329.989280,1677472329.989683,95.000000,0.000000,4182.179688,4184.358887,4239.230957,4231.538574,4251.282227,4264.487305,4272.051270,4281.410156,4212.563965,4235.512695,4445.000000,4449.743652,4295.897461,4334.487305,6279.000000,4.000000,98.000000,,,,0.000000,4.000000,4.000000,4.000000,4.000000,4.000000,4.000000,4.000000,4.000000,4.000000,4.000000,4.000000,4.000000,4.000000,4.000000,100.000000,,,,,,,,,,,,,,,,,,,,,,,,,,,,
1677472329.997088,1677472329.997491,96.000000,0.000000,4181.922852,4185.256348,4238.974121,4232.948730,4245.641113,4265.384766,4275.897461,4286.153809,4219.102539,4245.897461,4444.871582,4449.102539,4295.769043,4325.641113,6017.000000,4.000000,98.000000,,,,0.000000,4.000000,4.000000,4.000000,4.000000,4.000000,4.000000,4.000000,4.000000,4.000000,4.000000,4.000000,4.000000,4.000000,4.000000,100.000000,,,,,,,,,,,,,,,,,24.000000,0.000000,0.709729,-0.222412,-0.666199,-0.054749,0.967403,-0.242705,0.027347,-109.170113,27.252527,6.213855
1677472330.004896,1677472330.005399,97.000000,0.000000,4183.589844,4185.384766,4237.948730,4240.641113,4248.333496,4271.794922,4273.717773,4290.000000,4222.820313,4241.666504,4444.230957,4437.692383,4294.487305,4325.897461,6785.000000,4.000000,98.000000,,,,0.000000,4.000000,4.000000,4.000000,4.000000,4.000000,4.000000,4.000000,4.000000,4.000000,4.000000,4.000000,4.000000,4.000000,4.000000,100.000000,,,,,,,,,,,,,,,,,,,,,,,,,,,,
1677472330.012704,1677472330.013207,98.000000,0.000000,4180.000000,4186.153809,4238.205078,4240.769043,4248.461426,4278.205078,4272.436035,4285.897461,4216.794922,4232.820313,4446.922852,4431.282227,4295.384766,4335.512695,6018.000000,4.000000,98.000000,,,,0.000000,4.000000,4.000000,4.000000,4.000000,4.000000,4.000000,4.000000,4.000000,4.000000,4.000000,4.000000,4.000000,4.000000,4.000000,100.000000,,,,,,,,,,,,,,,,,,,,,,,,,,,,
1677472330.020512,1677472330.021114,99.000000,0.000000,4174.230957,4185.256348,4234.358887,4233.589844,4245.128418,4275.256348,4276.025879,4281.666504,4213.589844,4232.436035,4440.769043,4430.000000,4290.128418,4335.769043,6279.000000,4.000000,98.000000,,,,0.000000,4.000000,4.000000,4.000000,4.000000,4.000000,4.000000,4.000000,4.000000,4.000000,4.000000,4.000000,4.000000,4.000000,4.000000,100.000000,,,,,,,,,,,,,,,,,,,,,,,,,,,,
1677472330.028320,1677472330.028922,100.000000,0.000000,4173.589844,4184.230957,4232.948730,4232.307617,4240.000000,4273.846191,4275.384766,4285.000000,4213.717773,4233.717773,4437.563965,4429.102539,4288.717773,4330.256348,6017.000000,4.000000,98.000000,,,,0.000000,4.000000,4.000000,4.000000,4.000000,4.000000,4.000000,4.000000,4.000000,4.000000,4.000000,4.000000,4.000000,4.000000,4.000000,100.000000,,,,,,,,,,,,,,,,,25.000000,0.000000,0.709034,-0.223328,-0.666809,-0.052551,0.993285,-0.251984,0.018557,-109.169769,27.277273,6.175803
1677472330.036128,1677472330.036630,101.000000,0.000000,4179.358887,4184.230957,4239.230957,4235.384766,4238.846191,4279.358887,4276.666504,4294.102539,4216.922852,4240.256348,4453.077148,4437.307617,4299.615234,4335.000000,6785.000000,4.000000,98.000000,,,,0.000000,4.000000,4.000000,4.000000,4.000000,4.000000,4.000000,4.000000,4.000000,4.000000,4.000000,4.000000,4.000000,4.000000,4.000000,100.000000,,,,,,,,,,,,,,,,,,,,,,,,,,,,
1677472330.043936,1677472330.044437,102.000000,0.000000,4178.974121,4182.948730,4239.743652,4234.487305,4240.897461,4281.282227,4278.077148,4299.487305,4224.743652,4250.256348,4463.333496,4447.563965,4305.128418,4335.384766,6018.000000,4.000000,98.000000,,,,0.000000,4.000000,4.000000,4.000000,4.000000,4.000000,4.000000,4.000000,4.000000,4.000000,4.000000,4.000000,4.000000,4.000000,4.000000,100.000000,,,,,,,,,,,,,,,,,,,,,,,,,,,,
1677472330.051744,1677472330.052145,103.000000,0.000000,4175.769043,4182.179688,4239.871582,4235.641113,4237.692383,4276.922852,4277.051270,4299.358887,4230.641113,4248.974121,4455.512695,4447.563965,4306.922852,4334.871582,6279.000000,4.000000,98.000000,,,,0.000000,4.000000,4.000000,4.000000,4.000000,4.000000,4.000000,4.000000,4.000000,4.000000,4.000000,4.000000,4.000000,4.000000,4.000000,100.000000,,,,,,,,,,,,,,,,,,,,,,,,,,,,
1677472330.059553,1677472330.059953,104.000000,0.000000,4183.461426,4184.358887,4249.743652,4244.358887,4237.948730,4277.820313,4278.589844,4304.102539,4230.384766,4245.641113,4457.948730,4448.205078,4315.000000,4346.666504,6017.000000,4.000000,98.000000,,,,0.000000,4.000000,4.000000,4.000000,4.000000,4.000000,4.000000,4.000000,4.000000,4.000000,4.000000,4.000000,4.000000,4.000000,4.000000,100.000000,,,,,,,,,,,,,,,,,26.000000,0.000000,0.708508,-0.223694,-0.667358,-0.051086,0.956171,-0.259797,0.008302,-109.119461,27.316214,6.074889
1677472330.067361,1677472330.067661,105.000000,0.000000,4194.487305,4185.384766,4260.512695,4250.000000,4247.436035,4282.179688,4282.820313,4310.641113,4228.717773,4249.743652,4468.589844,4456.153809,4317.692383,4354.615234,6785.000000,4.000000,98.000000,,,,0.000000,4.000000,4.000000,4.000000,4.000000,4.000000,4.000000,4.000000,4.000000,4.000000,4.000000,4.000000,4.000000,4.000000,4.000000,100.000000,,,,,,,,,,,,,,,,,,,,,,,,,,,,
1677472330.075168,1677472330.075469,106.000000,0.000000,4197.436035,4187.436035,4261.410156,4249.102539,4248.717773,4280.256348,4280.897461,4307.563965,4229.487305,4251.153809,4465.512695,4459.358887,4315.000000,4355.512695,6018.000000,4.000000,98.000000,,,,0.000000,4.000000,4.000000,4.000000,4.000000,4.000000,4.000000,4.000000,4.000000,4.000000,4.000000,4.000000,4.000000,4.000000,4.000000,100.000000,,,,,,,,,,,,,,,,,,,,,,,,,,,,
1677472330.082976,1677472330.083176,107.000000,0.000000,4197.179688,4192.563965,4261.153809,4247.692383,4241.666504,4274.487305,4275.384766,4302.692383,4228.974121,4248.333496,4464.871582,4459.743652,4321.153809,4362.820313,6279.000000,4.000000,98.000000,,,,0.000000,4.000000,4.000000,4.000000,4.000000,4.000000,4.000000,4.000000,4.000000,4.000000,4.000000,4.000000,4.000000,4.000000,4.000000,100.000000,,,,,,,,,,,,,,,,,,,,,,,,,,,,
1677472330.090784,1677472330.090984,108.000000,0.000000,4205.769043,4194.487305,4266.922852,4250.897461,4242.307617,4275.641113,4275.769043,4308.461426,4229.743652,4252.820313,4477.436035,4467.563965,4334.743652,4371.410156,6017.000000,4.000000,98.000000,,,,0.000000,4.000000,4.000000,4.000000,4.000000,4.000000,4.000000,4.000000,4.000000,4.000000,4.000000,4.000000,4.000000,4.000000,4.000000,100.000000,,,,,,,,,,,,,,,,,27.000000,0.000000,0.707717,-0.223816,-0.668396,-0.047852,0.959101,-0.251007,-0.001465,-108.957512,27.301258,6.050734
1677472330.098593,1677472330.098692,109.000000,0.000000,4202.948730,4187.179688,4267.179688,4251.282227,4242.179688,4279.230957,4279.102539,4312.820313,4234.487305,4258.974121,4480.897461,4469.615234,4331.794922,4366.282227,6785.000000,4.000000,98.000000,,,,0.000000,4.000000,4.000000,4.000000,4.000000,4.000000,4.000000,4.000000,4.000000,4.000000,4.000000,4.000000,4.000000,4.000000,4.000000,100.000000,,,,,,,,,,,,,,,,,,,,,,,,,,,,
1677472330.106401,1677472330.106500,110.000000,0.000000,4187.179688,4181.025879,4259.615234,4247.179688,4240.256348,4278.077148,4277.307617,4304.871582,4229.871582,4253.205078,4472.563965,4457.051270,4322.307617,4356.794922,6018.000000,4.000000,98.000000,,,,0.000000,4.000000,4.000000,4.000000,4.000000,4.000000,4.000000,4.000000,4.000000,4.000000,4.000000,4.000000,4.000000,4.000000,4.000000,100.000000,,,,,,,,,,,,,,,,,,,,,,,,,,,,
1677472330.114209,1677472330.114208,111.000000,0.000000,4189.102539,4184.743652,4251.025879,4246.666504,4245.256348,4276.922852,4272.563965,4294.358887,4217.051270,4244.230957,4472.692383,4442.948730,4328.205078,4358.077148,6279.000000,4.000000,98.000000,,,,0.000000,4.000000,4.000000,4.000000,4.000000,4.000000,4.000000,4.000000,4.000000,4.000000,4.000000,4.000000,4.000000,4.000000,4.000000,100.000000,,,,,,,,,,,,,,,,,,,,,,,,,,,,
1677472330.122017,1677472330.122015,112.000000,0.000000,4197.820313,4188.717773,4247.179688,4248.333496,4249.230957,4277.051270,4274.358887,4291.666504,4213.205078,4246.666504,4473.846191,4436.410156,4334.487305,4363.461426,6017.000000,4.000000,98.000000,,,,0.000000,4.000000,4.000000,4.000000,4.000000,4.000000,4.000000,4.000000,4.000000,4.000000,4.000000,4.000000,4.000000,4.000000,4.000000,100.000000,,,,,,,,,,,,,,,,,28.000000,0.000000,0.707090,-0.222656,-0.669617,-0.045410,0.963008,-0.238799,-0.007813,-109.045097,27.221132,6.128994
1677472330.129825,1677472330.129723,113.000000,0.000000,4189.230957,4186.410156,4248.333496,4248.974121,4253.717773,4279.358887,4278.846191,4289.871582,4214.615234,4248.077148,4464.487305,4435.769043,4327.820313,4358.717773,6785.000000,4.000000,98.000000,,,,0.000000,4.000000,4.000000,4.000000,4.000000,4.000000,4.000000,4.000000,4.000000,4.000000,4.000000,4.000000,4.000000,4.000000,4.000000,100.000000,,,,,,,,,,,,,,,,,,,,,,,,,,,,
1677472330.137632,1677472330.137631,114.000000,0.000000,4186.538574,4186.794922,4248.974121,4247.563965,4259.102539,4277.436035,4271.666504,4285.384766,4204.487305,4235.897461,4455.256348,4435.000000,4319.358887,4348.974121,6018.000000,4.000000,98.000000,,,,0.000000,4.000000,4.000000,4.000000,4.000000,4.000000,4.000000,4.000000,4.000000,4.000000,4.000000,4.000000,4.000000,4.000000,4.000000,100.000000,,,,,,,,,,,,,,,,,,,,,,,,,,,,
1677472330.145441,1677472330.145439,115.000000,0.000000,4198.589844,4193.974121,4247.948730,4249.358887,4259.487305,4266.025879,4262.051270,4278.077148,4193.077148,4228.461426,4455.641113,4430.641113,4320.769043,4349.871582,6279.000000,4.000000,98.000000,,,,0.000000,4.000000,4.000000,4.000000,4.000000,4.000000,4.000000,4.000000,4.000000,4.000000,4.000000,4.000000,4.000000,4.000000,4.000000,100.000000,,,,,,,,,,,,,,,,,,,,,,,,,,,,
1677472330.153249,1677472330.153347,116.000000,0.000000,4203.205078,4201.666504,4253.077148,4255.769043,4256.282227,4264.487305,4269.358887,4277.307617,4200.128418,4239.871582,4464.871582,4437.051270,4331.794922,4362.307617,6017.000000,4.000000,98.000000,,,,0.000000,4.000000,4.000000,4.000000,4.000000,4.000000,4.000000,4.000000,4.000000,4.000000,4.000000,4.000000,4.000000,4.000000,4.000000,100.000000,,,,,,,,,,,,,,,,,29.000000,0.000000,0.706557,-0.220032,-0.671143,-0.043945,0.948846,-0.230497,-0.005860,-109.090584,27.115686,5.916094
1677472330.161057,1677472330.161155,117.000000,0.000000,4200.897461,4202.948730,4256.922852,4255.769043,4257.051270,4274.487305,4274.615234,4282.563965,4206.410156,4249.358887,4469.102539,4445.000000,4341.153809,4369.615234,6785.000000,4.000000,98.000000,,,,0.000000,4.000000,4.000000,4.000000,4.000000,4.000000,4.000000,4.000000,4.000000,4.000000,4.000000,4.000000,4.000000,4.000000,4.000000,100.000000,,,,,,,,,,,,,,,,,,,,,,,,,,,,
1677472330.168865,1677472330.169063,118.000000,0.000000,4201.025879,4198.077148,4249.358887,4247.948730,4259.743652,4276.666504,4267.948730,4280.384766,4193.589844,4237.563965,4462.307617,4435.128418,4334.615234,4357.436035,6018.000000,4.000000,98.000000,,,,0.000000,4.000000,4.000000,4.000000,4.000000,4.000000,4.000000,4.000000,4.000000,4.000000,4.000000,4.000000,4.000000,4.000000,4.000000,100.000000,,,,,,,,,,,,,,,,,,,,,,,,,,,,
1677472330.176673,1677472330.176871,119.000000,0.000000,4196.666504,4191.922852,4239.615234,4244.743652,4263.333496,4274.615234,4264.487305,4268.589844,4182.692383,4226.538574,4454.230957,4422.692383,4321.922852,4341.153809,6279.000000,4.000000,98.000000,,,,0.000000,4.000000,4.000000,4.000000,4.000000,4.000000,4.000000,4.000000,4.000000,4.000000,4.000000,4.000000,4.000000,4.000000,4.000000,100.000000,,,,,,,,,,,,,,,,,,,,,,,,,,,,
1677472330.184481,1677472330.184779,120.000000,0.000000,4191.666504,4189.358887,4238.846191,4246.666504,4266.538574,4275.769043,4267.820313,4262.051270,4184.615234,4230.769043,4451.410156,4421.666504,4317.692383,4347.051270,6017.000000,4.000000,98.000000,,,,0.000000,4.000000,4.000000,4.000000,4.000000,4.000000,4.000000,4.000000,4.000000,4.000000,4.000000,4.000000,4.000000,4.000000,4.000000,100.000000,,,,,,,,,,,,,,,,,30.000000,0.000000,0.706464,-0.217163,-0.672241,-0.042908,0.983030,-0.242705,-0.005860,-109.098190,27.204117,5.741151
1677472330.192289,1677472330.192586,121.000000,0.000000,4187.436035,4190.128418,4238.589844,4246.153809,4265.897461,4270.000000,4266.282227,4261.666504,4179.871582,4225.128418,4446.282227,4418.461426,4313.589844,4355.512695,6785.000000,4.000000,98.000000,,,,0.000000,4.000000,4.000000,4.000000,4.000000,4.000000,4.000000,4.000000,4.000000,4.000000,4.000000,4.000000,4.000000,4.000000,4.000000,100.000000,,,,,,,,,,,,,,,,,,,,,,,,,,,,
1677472330.200097,1677472330.200494,122.000000,0.000000,4189.102539,4193.077148,4237.051270,4247.051270,4265.000000,4262.563965,4265.641113,4259.871582,4169.871582,4214.358887,4442.307617,4415.641113,4312.051270,4350.384766,6018.000000,4.000000,98.000000,,,,0.000000,4.000000,4.000000,4.000000,4.000000,4.000000,4.000000,4.000000,4.000000,4.000000,4.000000,4.000000,4.000000,4.000000,4.000000,100.000000,,,,,,,,,,,,,,,,,,,,,,,,,,,,
1677472330.207905,1677472330.208302,123.000000,0.000000,4194.102539,4191.794922,4237.179688,4248.461426,4263.461426,4264.230957,4266.538574,4259.871582,4175.000000,4222.051270,4446.153809,4419.358887,4317.563965,4347.820313,6279.000000,4.000000,98.000000,,,,0.000000,4.000000,4.000000,4.000000,4.000000,4.000000,4.000000,4.000000,4.000000,4.000000,4.000000,4.000000,4.000000,4.000000,4.000000,100.000000,,,,,,,,,,,,,,,,,,,,,,,,,,,,
1677472330.215713,1677472330.216209,124.000000,0.000000,4193.589844,4185.897461,4238.205078,4245.256348,4256.922852,4261.153809,4265.384766,4264.743652,4182.692383,4233.461426,4453.205078,4427.820313,4320.641113,4348.974121,6017.000000,4.000000,98.000000,,,,0.000000,4.000000,4.000000,4.000000,4.000000,4.000000,4.000000,4.000000,4.000000,4.000000,4.000000,4.000000,4.000000,4.000000,4.000000,100.000000,,,,,,,,,,,,,,,,,31.000000,0.000000,0.706371,-0.214783,-0.673157,-0.042053,0.996215,-0.230009,-0.013185,-109.288376,27.150372,5.467036
1677472330.223521,1677472330.224017,125.000000,0.000000,4196.538574,4188.846191,4243.205078,4244.487305,4248.717773,4252.820313,4266.410156,4272.948730,4182.948730,4235.769043,4460.641113,4436.922852,4324.487305,4351.282227,6785.000000,4.000000,98.000000,,,,0.000000,4.000000,4.000000,4.000000,4.000000,4.000000,4.000000,4.000000,4.000000,4.000000,4.000000,4.000000,4.000000,4.000000,4.000000,100.000000,,,,,,,,,,,,,,,,,,,,,,,,,,,,
1677472330.231329,1677472330.231725,126.000000,0.000000,4205.641113,4196.666504,4249.743652,4245.256348,4246.025879,4251.538574,4267.820313,4279.358887,4192.307617,4240.897461,4463.077148,4444.871582,4333.717773,4365.128418,6018.000000,4.000000,98.000000,,,,0.000000,4.000000,4.000000,4.000000,4.000000,4.000000,4.000000,4.000000,4.000000,4.000000,4.000000,4.000000,4.000000,4.000000,4.000000,100.000000,,,,,,,,,,,,,,,,,,,,,,,,,,,,
1677472330.239137,1677472330.239533,127.000000,0.000000,4208.974121,4196.025879,4253.205078,4245.384766,4247.436035,4257.820313,4268.846191,4283.333496,4201.410156,4248.974121,4462.179688,4449.358887,4338.974121,4379.743652,98.000000,4.000000,98.000000,,,,0.000000,4.000000,4.000000,4.000000,4.000000,4.000000,4.000000,4.000000,4.000000,4.000000,4.000000,4.000000,4.000000,4.000000,4.000000,100.000000,,,,,,,,,,,,,,,,,,,,,,,,,,,,
1677472330.246945,1677472330.247241,0.000000,0.000000,4211.666504,4197.051270,4251.794922,4246.538574,4252.948730,4260.128418,4269.871582,4285.512695,4194.487305,4245.769043,4462.307617,4449.487305,4336.025879,4376.153809,5449.000000,4.000000,98.000000,,,,0.000000,4.000000,4.000000,4.000000,4.000000,4.000000,4.000000,4.000000,4.000000,4.000000,4.000000,4.000000,4.000000,4.000000,4.000000,100.000000,,,,,,,,,,,,,,,,,0.000000,0.000000,0.705767,-0.212952,-0.674438,-0.040955,0.974728,-0.237334,-0.012209,-109.259537,27.252003,5.270333
1677472330.254753,1677472330.255148,1.000000,0.000000,4214.615234,4202.948730,4250.256348,4250.128418,4260.897461,4252.563965,4268.589844,4277.179688,4178.077148,4235.769043,4460.000000,4443.205078,4333.846191,4366.666504,4826.000000,4.000000,98.000000,,,,0.000000,4.000000,4.000000,4.000000,4.000000,4.000000,4.000000,4.000000,4.000000,4.000000,4.000000,4.000000,4.000000,4.000000,4.000000,100.000000,,,,,,,,,,,,,,,,,,,,,,,,,,,,
1677472330.262561,1677472330.262956,2.000000,0.000000,4214.743652,4203.205078,4250.128418,4249.615234,4260.769043,4246.538574,4262.436035,4262.692383,4168.589844,4230.641113,4452.820313,4435.641113,4332.051270,4370.128418,5270.000000,4.000000,98.000000,,,,0.000000,4.000000,4.000000,4.000000,4.000000,4.000000,4.000000,4.000000,4.000000,4.000000,4.000000,4.000000,4.000000,4.000000,4.000000,100.000000,,,,,,,,,,,,,,,,,,,,,,,,,,,,
1677472330.270369,1677472330.270864,3.000000,0.000000,4220.641113,4205.384766,4251.922852,4247.820313,4259.358887,4251.794922,4260.128418,4261.410156,4174.743652,4232.692383,4448.077148,4437.307617,4330.384766,4381.025879,5460.000000,4.000000,98.000000,,,,0.000000,4.000000,4.000000,4.000000,4.000000,4.000000,4.000000,4.000000,4.000000,4.000000,4.000000,4.000000,4.000000,4.000000,4.000000,100.000000,,,,,,,,,,,,,,,,,,,,,,,,,,,,
1677472330.278177,1677472330.278672,4.000000,0.000000,4228.077148,4214.358887,4251.153809,4248.589844,4259.871582,4255.897461,4261.025879,4265.641113,4182.692383,4233.974121,4447.948730,4438.461426,4330.256348,4385.000000,4811.000000,4.000000,98.000000,,,,0.000000,4.000000,4.000000,4.000000,4.000000,4.000000,4.000000,4.000000,4.000000,4.000000,4.000000,4.000000,4.000000,4.000000,4.000000,100.000000,,,,,,,,,,,,,,,,,1.000000,0.000000,0.705336,-0.212219,-0.675171,-0.040100,0.975705,-0.247100,-0.007813,-109.283585,27.343468,5.226633
1677472330.285985,1677472330.286580,5.000000,0.000000,4227.948730,4216.538574,4248.717773,4247.948730,4252.692383,4251.922852,4260.256348,4265.512695,4181.282227,4229.871582,4448.589844,4440.000000,4330.384766,4381.922852,4948.000000,4.000000,98.000000,,,,0.000000,4.000000,4.000000,4.000000,4.000000,4.000000,4.000000,4.000000,4.000000,4.000000,4.000000,4.000000,4.000000,4.000000,4.000000,100.000000,,,,,,,,,,,,,,,,,,,,,,,,,,,,
1677472330.293793,1677472330.294388,6.000000,0.000000,4227.948730,4215.128418,4250.897461,4246.794922,4244.615234,4252.692383,4261.153809,4279.487305,4186.410156,4235.256348,4458.333496,4453.205078,4340.000000,4388.205078,3884.000000,4.000000,98.000000,,,,0.000000,4.000000,4.000000,4.000000,4.000000,4.000000,4.000000,4.000000,4.000000,4.000000,4.000000,4.000000,4.000000,4.000000,4.000000,100.000000,,,,,,,,,,,,,,,,,,,,,,,,,,,,
1677472330.301601,1677472330.302196,7.000000,0.000000,4235.769043,4212.563965,4257.563965,4245.769043,4246.922852,4262.820313,4267.948730,4298.333496,4202.563965,4246.025879,4470.384766,4465.897461,4349.743652,4405.256348,5086.000000,4.000000,98.000000,,,,0.000000,4.000000,4.000000,4.000000,4.000000,4.000000,4.000000,4.000000,4.000000,4.000000,4.000000,4.000000,4.000000,4.000000,4.000000,100.000000,,,,,,,,,,,,,,,,,,,,,,,,,,,,
1677472330.309409,1677472330.309904,8.000000,0.000000,4244.743652,4214.487305,4263.589844,4247.436035,4251.666504,4266.410156,4270.000000,4295.256348,4201.282227,4246.794922,4469.102539,4463.974121,4349.358887,4413.461426,5001.000000,4.000000,98.000000,,,,0.000000,4.000000,4.000000,4.000000,4.000000,4.000000,4.000000,4.000000,4.000000,4.000000,4.000000,4.000000,4.000000,4.000000,4.000000,100.000000,,,,,,,,,,,,,,,,,2.000000,0.000000,0.704518,-0.211731,-0.676270,-0.038513,0.972287,-0.238310,-0.013674,-109.338562,27.342455,4.970636
1677472330.317217,1677472330.317712,9.000000,0.000000,4252.307617,4221.666504,4268.205078,4251.794922,4251.538574,4263.077148,4268.333496,4286.153809,4187.948730,4240.384766,4465.641113,4463.205078,4351.538574,4415.128418,4726.000000,4.000000,98.000000,,,,0.000000,4.000000,4.000000,4.000000,4.000000,4.000000,4.000000,4.000000,4.000000,4.000000,4.000000,4.000000,4.000000,4.000000,4.000000,100.000000,,,,,,,,,,,,,,,,,,,,,,,,,,,,
1677472330.325025,1677472330.325419,10.000000,0.000000,4263.205078,4226.410156,4278.077148,4256.666504,4256.794922,4272.563965,4273.974121,4286.538574,4186.666504,4237.051270,4470.897461,4474.102539,4359.358887,4426.922852,6015.000000,4.000000,98.000000,,,,0.000000,4.000000,4.000000,4.000000,4.000000,4.000000,4.000000,4.000000,4.000000,4.000000,4.000000,4.000000,4.000000,4.000000,4.000000,100.000000,,,,,,,,,,,,,,,,,,,,,,,,,,,,
1677472330.332833,1677472330.333327,11.000000,0.000000,4282.692383,4241.153809,4292.051270,4266.922852,4264.871582,4281.025879,4280.641113,4281.666504,4181.538574,4233.461426,4471.666504,4481.153809,4361.922852,4451.538574,6274.000000,4.000000,98.000000,,,,0.000000,4.000000,4.000000,4.000000,4.000000,4.000000,4.000000,4.000000,4.000000,4.000000,4.000000,4.000000,4.000000,4.000000,4.000000,100.000000,,,,,,,,,,,,,,,,,,,,,,,,,,,,
1677472330.340641,1677472330.341135,12.000000,0.000000,4308.974121,4266.410156,4303.974121,4279.615234,4264.871582,4268.717773,4278.846191,4271.794922,4170.384766,4232.692383,4470.897461,4485.641113,4370.000000,4479.871582,6008.000000,4.000000,98.000000,,,,0.000000,4.000000,4.000000,4.000000,4.000000,4.000000,4.000000,4.000000,4.000000,4.000000,4.000000,4.000000,4.000000,4.000000,4.000000,100.000000,1.000000,75.000000,4.000000,4.000000,4.000000,4.000000,4.000000,4.000000,4.000000,4.000000,1.000000,4.000000,4.000000,4.000000,4.000000,4.000000,3.000000,0.000000,0.703528,-0.211914,-0.677307,-0.037354,0.970333,-0.245147,-0.023929,-109.354706,27.458210,4.706906
1677472330.348449,1677472330.349043,13.000000,0.000000,4331.538574,4286.794922,4315.641113,4291.410156,4263.077148,4259.230957,4277.051270,4275.641113,4173.846191,4239.615234,4483.333496,4499.230957,4392.436035,4509.871582,6776.000000,4.000000,98.000000,,,,0.000000,4.000000,4.000000,4.000000,4.000000,4.000000,4.000000,4.000000,4.000000,4.000000,4.000000,4.000000,4.000000,4.000000,4.000000,100.000000,,,,,,,,,,,,,,,,,,,,,,,,,,,,
1677472330.356257,1677472330.356851,14.000000,0.000000,4347.563965,4295.641113,4325.384766,4293.205078,4266.025879,4265.128418,4278.846191,4284.487305,4184.358887,4246.922852,4494.487305,4513.846191,4405.384766,4535.000000,6015.000000,4.000000,98.000000,,,,0.000000,4.000000,4.000000,4.000000,4.000000,4.000000,4.000000,4.000000,4.000000,4.000000,4.000000,4.000000,4.000000,4.000000,4.000000,100.000000,,,,,,,,,,,,,,,,,,,,,,,,,,,,
1677472330.364065,1677472330.364759,15.000000,0.000000,4356.922852,4292.820313,4328.205078,4286.666504,4265.128418,4264.871582,4278.717773,4286.410156,4184.358887,4244.743652,4492.820313,4516.153809,4403.205078,4550.512695,6274.000000,4.000000,98.000000,,,,0.000000,4.000000,4.000000,4.000000,4.000000,4.000000,4.000000,4.000000,4.000000,4.000000,4.000000,4.000000,4.000000,4.000000,4.000000,100.000000,,,,,,,,,,,,,,,,,,,,,,,,,,,,
1677472330.371873,1677472330.372567,16.000000,0.000000,4367.692383,4294.487305,4332.307617,4287.051270,4263.205078,4262.179688,4279.487305,4290.128418,4180.000000,4237.820313,4493.461426,4517.948730,4402.820313,4565.512695,0.000000,4.000000,98.000000,,,,0.000000,4.000000,4.000000,4.000000,4.000000,4.000000,4.000000,4.000000,4.000000,4.000000,4.000000,4.000000,4.000000,4.000000,4.000000,100.000000,,,,,,,,,,,,,,,,,4.000000,0.000000,0.702184,-0.212830,-0.678467,-0.036377,0.985472,-0.233915,-0.021487,-109.385902,27.462389,4.336215
1677472330.379681,1677472330.380475,17.000000,0.000000,4382.051270,4312.563965,4342.051270,4299.358887,4269.871582,4273.974121,4283.205078,4298.461426,4184.358887,4236.666504,4496.153809,4528.589844,4405.256348,4574.102539,0.000000,4.000000,98.000000,,,,0.000000,4.000000,4.000000,4.000000,4.000000,4.000000,4.000000,4.000000,4.000000,4.000000,4.000000,4.000000,4.000000,4.000000,4.000000,100.000000,,,,,,,,,,,,,,,,,,,,,,,,,,,,
1677472330.387489,1677472330.388282,18.000000,0.000000,4386.538574,4320.641113,4346.922852,4303.333496,4274.102539,4283.461426,4285.897461,4302.563965,4189.102539,4239.230957,4494.615234,4535.128418,4400.128418,4575.384766,0.000000,4.000000,98.000000,,,,0.000000,4.000000,4.000000,4.000000,4.000000,4.000000,4.000000,4.000000,4.000000,4.000000,4.000000,4.000000,4.000000,4.000000,4.000000,100.000000,,,,,,,,,,,,,,,,,,,,,,,,,,,,
1677472330.395297,1677472330.396190,19.000000,0.000000,4382.692383,4308.974121,4344.871582,4293.974121,4272.436035,4281.282227,4285.256348,4300.641113,4187.948730,4238.205078,4499.615234,4531.666504,4400.256348,4579.230957,0.000000,4.000000,98.000000,,,,0.000000,4.000000,4.000000,4.000000,4.000000,4.000000,4.000000,4.000000,4.000000,4.000000,4.000000,4.000000,4.000000,4.000000,4.000000,100.000000,,,,,,,,,,,,,,,,,,,,,,,,,,,,
1677472330.403105,1677472330.403998,20.000000,0.000000,4389.487305,4320.641113,4345.256348,4302.436035,4275.000000,4279.743652,4283.717773,4293.205078,4185.897461,4236.025879,4509.230957,4527.179688,4417.436035,4581.410156,0.000000,4.000000,98.000000,,,,0.000000,4.000000,4.000000,4.000000,4.000000,4.000000,4.000000,4.000000,4.000000,4.000000,4.000000,4.000000,4.000000,4.000000,4.000000,100.000000,,,,,,,,,,,,,,,,,5.000000,0.000000,0.701089,-0.214172,-0.679199,-0.035950,0.970333,-0.240264,-0.033207,-109.430641,27.332817,4.019260
1677472330.410913,1677472330.411706,21.000000,0.000000,4396.922852,4334.230957,4343.333496,4310.769043,4276.922852,4281.410156,4280.641113,4285.897461,4187.179688,4234.743652,4496.538574,4523.205078,4413.461426,4576.282227,0.000000,4.000000,98.000000,,,,0.000000,4.000000,4.000000,4.000000,4.000000,4.000000,4.000000,4.000000,4.000000,4.000000,4.000000,4.000000,4.000000,4.000000,4.000000,100.000000,,,,,,,,,,,,,,,,,,,,,,,,,,,,
1677472330.418721,1677472330.419513,22.000000,0.000000,4386.922852,4317.436035,4337.307617,4299.102539,4273.461426,4278.589844,4278.589844,4285.897461,4189.102539,4232.948730,4478.461426,4518.846191,4381.922852,4568.333496,0.000000,4.000000,98.000000,,,,0.000000,4.000000,4.000000,4.000000,4.000000,4.000000,4.000000,4.000000,4.000000,4.000000,4.000000,4.000000,4.000000,4.000000,4.000000,100.000000,,,,,,,,,,,,,,,,,,,,,,,,,,,,
1677472330.426529,1677472330.427221,23.000000,0.000000,4382.948730,4326.153809,4334.102539,4299.358887,4274.871582,4272.179688,4273.461426,4282.820313,4185.256348,4229.487305,4482.307617,4513.717773,4380.897461,4570.128418,0.000000,4.000000,98.000000,,,,0.000000,4.000000,4.000000,4.000000,4.000000,4.000000,4.000000,4.000000,4.000000,4.000000,4.000000,4.000000,4.000000,4.000000,4.000000,100.000000,,,,,,,,,,,,,,,,,,,,,,,,,,,,
1677472330.434337,1677472330.435029,24.000000,0.000000,4394.743652,4354.743652,4338.461426,4314.487305,4279.743652,4273.717773,4271.922852,4274.871582,4180.897461,4225.769043,4484.615234,4511.794922,4393.333496,4575.000000,0.000000,4.000000,98.000000,,,,0.000000,4.000000,4.000000,4.000000,4.000000,4.000000,4.000000,4.000000,4.000000,4.000000,4.000000,4.000000,4.000000,4.000000,4.000000,100.000000,,,,,,,,,,,,,,,,,6.000000,0.000000,0.700210,-0.215271,-0.679810,-0.034973,0.980100,-0.220242,-0.036137,-109.370911,27.432867,3.834001
1677472330.442145,1677472330.442737,25.000000,0.000000,4396.666504,4346.666504,4345.512695,4314.102539,4281.153809,4281.153809,4276.410156,4279.358887,4184.358887,4224.487305,4476.282227,4520.897461,4377.563965,4573.077148,0.000000,4.000000,98.000000,,,,0.000000,4.000000,4.000000,4.000000,4.000000,4.000000,4.000000,4.000000,4.000000,4.000000,4.000000,4.000000,4.000000,4.000000,4.000000,100.000000,,,,,,,,,,,,,,,,,,,,,,,,,,,,
1677472330.449953,1677472330.450544,26.000000,0.000000,4394.743652,4338.846191,4348.333496,4309.230957,4280.769043,4279.358887,4275.641113,4284.358887,4182.692383,4223.974121,4476.922852,4528.461426,4372.820313,4573.589844,0.000000,4.000000,98.000000,,,,0.000000,4.000000,4.000000,4.000000,4.000000,4.000000,4.000000,4.000000,4.000000,4.000000,4.000000,4.000000,4.000000,4.000000,4.000000,100.000000,,,,,,,,,,,,,,,,,,,,,,,,,,,,
1677472330.457761,1677472330.458252,27.000000,0.000000,4395.384766,4358.461426,4343.333496,4312.948730,4280.384766,4273.846191,4269.743652,4278.333496,4170.897461,4218.846191,4477.563965,4516.025879,4385.769043,4574.102539,0.000000,4.000000,98.000000,,,,0.000000,4.000000,4.000000,4.000000,4.000000,4.000000,4.000000,4.000000,4.000000,4.000000,4.000000,4.000000,4.000000,4.000000,4.000000,100.000000,,,,,,,,,,,,,,,,,,,,,,,,,,,,
1677472330.465569,1677472330.466060,28.000000,0.000000,4382.307617,4354.487305,4332.563965,4305.384766,4279.102539,4277.179688,4273.461426,4281.538574,4173.589844,4216.794922,4471.282227,4504.487305,4373.205078,4562.051270,0.000000,4.000000,98.000000,,,,0.000000,4.000000,4.000000,4.000000,4.000000,4.000000,4.000000,4.000000,4.000000,4.000000,4.000000,4.000000,4.000000,4.000000,4.000000,100.000000,,,,,,,,,,,,,,,,,7.000000,0.000000,0.699647,-0.215637,-0.680359,-0.033264,0.944451,-0.209010,-0.036137,-109.333817,27.256248,3.567268
1677472330.473377,1677472330.473768,29.000000,0.000000,4371.922852,4340.512695,4326.666504,4300.512695,4277.563965,4280.256348,4278.589844,4290.000000,4185.256348,4219.615234,4467.692383,4508.333496,4354.102539,4548.717773,0.000000,4.000000,98.000000,,,,0.000000,4.000000,4.000000,4.000000,4.000000,4.000000,4.000000,4.000000,4.000000,4.000000,4.000000,4.000000,4.000000,4.000000,4.000000,100.000000,,,,,,,,,,,,,,,,,,,,,,,,,,,,
1677472330.481185,1677472330.481576,30.000000,0.000000,4382.948730,4359.230957,4331.538574,4311.410156,4282.436035,4278.077148,4276.410156,4282.948730,4178.205078,4218.205078,4467.307617,4509.615234,4358.974121,4552.563965,0.000000,4.000000,98.000000,,,,0.000000,4.000000,4.000000,4.000000,4.000000,4.000000,4.000000,4.000000,4.000000,4.000000,4.000000,4.000000,4.000000,4.000000,4.000000,100.000000,,,,,,,,,,,,,,,,,,,,,,,,,,,,
1677472330.488993,1677472330.489283,31.000000,0.000000,4393.077148,4379.743652,4339.871582,4318.589844,4291.794922,4277.820313,4277.179688,4271.666504,4168.589844,4218.846191,4467.692383,4508.205078,4364.743652,4561.153809,0.000000,4.000000,98.000000,,,,0.000000,4.000000,4.000000,4.000000,4.000000,4.000000,4.000000,4.000000,4.000000,4.000000,4.000000,4.000000,4.000000,4.000000,4.000000,100.000000,,,,,,,,,,,,,,,,,,,,,,,,,,,,
1677472330.496801,1677472330.497091,32.000000,0.000000,4389.102539,4377.436035,4340.384766,4317.436035,4297.179688,4280.256348,4279.871582,4265.641113,4171.666504,4224.358887,4466.666504,4510.128418,4353.077148,4556.922852,0.000000,4.000000,98.000000,,,,0.000000,4.000000,4.000000,4.000000,4.000000,4.000000,4.000000,4.000000,4.000000,4.000000,4.000000,4.000000,4.000000,4.000000,4.000000,100.000000,,,,,,,,,,,,,,,,,8.000000,0.000000,0.699506,-0.215637,-0.680542,-0.032471,0.943963,-0.215358,-0.039556,-109.467102,27.213957,3.277208
1677472330.504609,1677472330.504799,33.000000,0.000000,4382.436035,4375.512695,4335.128418,4316.153809,4294.871582,4281.025879,4280.256348,4260.000000,4167.051270,4222.820313,4456.282227,4503.717773,4334.743652,4545.000000,0.000000,4.000000,98.000000,,,,0.000000,4.000000,4.000000,4.000000,4.000000,4.000000,4.000000,4.000000,4.000000,4.000000,4.000000,4.000000,4.000000,4.000000,4.000000,100.000000,,,,,,,,,,,,,,,,,,,,,,,,,,,,
1677472330.512417,1677472330.512607,34.000000,0.000000,4378.461426,4388.846191,4334.230957,4320.641113,4293.461426,4280.769043,4278.589844,4260.128418,4156.538574,4216.538574,4451.410156,4495.512695,4328.333496,4539.102539,0.000000,4.000000,98.000000,,,,0.000000,4.000000,4.000000,4.000000,4.000000,4.000000,4.000000,4.000000,4.000000,4.000000,4.000000,4.000000,4.000000,4.000000,4.000000,100.000000,,,,,,,,,,,,,,,,,,,,,,,,,,,,
1677472330.520225,1677472330.520315,35.000000,0.000000,4378.589844,4400.128418,4335.384766,4325.128418,4294.230957,4279.743652,4277.692383,4264.743652,4157.692383,4215.641113,4453.717773,4496.282227,4331.794922,4541.794922,0.000000,4.000000,98.000000,,,,0.000000,4.000000,4.000000,4.000000,4.000000,4.000000,4.000000,4.000000,4.000000,4.000000,4.000000,4.000000,4.000000,4.000000,4.000000,100.000000,,,,,,,,,,,,,,,,,,,,,,,,,,,,
1677472330.528033,1677472330.528222,36.000000,0.000000,4381.025879,4400.128418,4335.512695,4327.051270,4295.897461,4278.974121,4276.666504,4264.743652,4157.179688,4216.410156,4451.153809,4497.820313,4325.769043,4541.538574,0.000000,4.000000,98.000000,,,,0.000000,4.000000,4.000000,4.000000,4.000000,4.000000,4.000000,4.000000,4.000000,4.000000,4.000000,4.000000,4.000000,4.000000,4.000000,100.000000,,,,,,,,,,,,,,,,,9.000000,0.000000,0.699701,-0.215210,-0.680542,-0.031067,0.960566,-0.238799,-0.021487,-109.570396,27.125895,2.999487
1677472330.535841,1677472330.536030,37.000000,0.000000,4384.615234,4406.794922,4343.333496,4331.538574,4299.102539,4279.358887,4280.000000,4266.666504,4153.333496,4218.333496,4455.897461,4502.820313,4324.615234,4541.538574,0.000000,4.000000,98.000000,,,,0.000000,4.000000,4.000000,4.000000,4.000000,4.000000,4.000000,4.000000,4.000000,4.000000,4.000000,4.000000,4.000000,4.000000,4.000000,100.000000,,,,,,,,,,,,,,,,,,,,,,,,,,,,
1677472330.543650,1677472330.543938,38.000000,0.000000,4382.051270,4409.102539,4346.922852,4331.922852,4296.153809,4276.410156,4282.692383,4272.436035,4161.538574,4223.589844,4460.128418,4508.333496,4329.102539,4541.538574,0.000000,4.000000,98.000000,,,,0.000000,4.000000,4.000000,4.000000,4.000000,4.000000,4.000000,4.000000,4.000000,4.000000,4.000000,4.000000,4.000000,4.000000,4.000000,100.000000,,,,,,,,,,,,,,,,,,,,,,,,,,,,
1677472330.551458,1677472330.551746,39.000000,0.000000,4371.410156,4392.307617,4335.769043,4322.820313,4293.205078,4275.384766,4282.436035,4277.948730,4172.436035,4223.205078,4449.743652,4501.794922,4315.384766,4529.743652,0.000000,4.000000,98.000000,,,,0.000000,4.000000,4.000000,4.000000,4.000000,4.000000,4.000000,4.000000,4.000000,4.000000,4.000000,4.000000,4.000000,4.000000,4.000000,100.000000,,,,,,,,,,,,,,,,,,,,,,,,,,,,
1677472330.559266,1677472330.559654,40.000000,0.000000,4358.717773,4388.717773,4322.307617,4317.948730,4292.436035,4277.307617,4279.102539,4279.102539,4171.922852,4218.717773,4442.179688,4488.589844,4302.051270,4518.589844,0.000000,4.000000,98.000000,,,,0.000000,4.000000,4.000000,4.000000,4.000000,4.000000,4.000000,4.000000,4.000000,4.000000,4.000000,4.000000,4.000000,4.000000,4.000000,100.000000,,,,,,,,,,,,,,,,,10.000000,0.000000,0.700378,-0.215271,-0.679871,-0.030090,0.984984,-0.254426,-0.011232,-109.580025,27.079971,2.716205
1677472330.567073,1677472330.567462,41.000000,0.000000,4346.794922,4395.384766,4314.871582,4316.025879,4285.897461,4273.974121,4272.948730,4275.769043,4167.051270,4213.077148,4440.641113,4480.000000,4297.179688,4509.358887,0.000000,4.000000,98.000000,,,,0.000000,4.000000,4.000000,4.000000,4.000000,4.000000,4.000000,4.000000,4.000000,4.000000,4.000000,4.000000,4.000000,4.000000,4.000000,100.000000,,,,,,,,,,,,,,,,,,,,,,,,,,,,
1677472330.574881,1677472330.575370,42.000000,0.000000,4339.230957,4384.615234,4308.461426,4308.974121,4281.922852,4270.000000,4267.692383,4270.256348,4161.282227,4207.179688,4430.128418,4473.461426,4283.846191,4494.615234,0.000000,4.000000,98.000000,,,,0.000000,4.000000,4.000000,4.000000,4.000000,4.000000,4.000000,4.000000,4.000000,4.000000,4.000000,4.000000,4.000000,4.000000,4.000000,100.000000,,,,,,,,,,,,,,,,,,,,,,,,,,,,
1677472330.582690,1677472330.583177,43.000000,0.000000,4340.000000,4382.051270,4308.717773,4310.769043,4288.205078,4273.077148,4267.820313,4259.743652,4152.692383,4210.000000,4423.333496,4469.487305,4281.025879,4493.077148,0.000000,4.000000,98.000000,,,,0.000000,4.000000,4.000000,4.000000,4.000000,4.000000,4.000000,4.000000,4.000000,4.000000,4.000000,4.000000,4.000000,4.000000,4.000000,100.000000,,,,,,,,,,,,,,,,,,,,,,,,,,,,
1677472330.590498,1677472330.591085,44.000000,0.000000,4346.282227,4400.769043,4318.974121,4324.487305,4298.077148,4277.307617,4269.743652,4249.615234,4155.256348,4216.922852,4435.897461,4473.974121,4295.641113,4506.282227,0.000000,4.000000,98.000000,,,,0.000000,4.000000,4.000000,4.000000,4.000000,4.000000,4.000000,4.000000,4.000000,4.000000,4.000000,4.000000,4.000000,4.000000,4.000000,100.000000,,,,,,,,,,,,,,,,,11.000000,0.000000,0.700889,-0.216553,-0.678955,-0.029663,0.985960,-0.291051,-0.013185,-109.588684,27.005308,2.577918
1677472330.598306,1677472330.598893,45.000000,0.000000,4353.717773,4407.563965,4325.641113,4329.615234,4304.230957,4278.974121,4270.641113,4251.538574,4162.563965,4218.846191,4445.128418,4481.794922,4299.743652,4509.487305,0.000000,4.000000,98.000000,,,,0.000000,4.000000,4.000000,4.000000,4.000000,4.000000,4.000000,4.000000,4.000000,4.000000,4.000000,4.000000,4.000000,4.000000,4.000000,100.000000,,,,,,,,,,,,,,,,,,,,,,,,,,,,
1677472330.606114,1677472330.606601,46.000000,0.000000,4357.820313,4404.871582,4323.717773,4326.410156,4305.512695,4279.615234,4270.512695,4260.000000,4157.692383,4223.717773,4442.948730,4484.102539,4294.230957,4505.256348,0.000000,4.000000,98.000000,,,,0.000000,4.000000,4.000000,4.000000,4.000000,4.000000,4.000000,4.000000,4.000000,4.000000,4.000000,4.000000,4.000000,4.000000,4.000000,100.000000,,,,,,,,,,,,,,,,,,,,,,,,,,,,
1677472330.613922,1677472330.614408,47.000000,0.000000,4352.051270,4408.077148,4320.769043,4325.256348,4302.563965,4272.820313,4269.358887,4262.436035,4155.769043,4231.538574,4443.589844,4479.358887,4295.256348,4503.846191,0.000000,4.000000,98.000000,,,,0.000000,4.000000,4.000000,4.000000,4.000000,4.000000,4.000000,4.000000,4.000000,4.000000,4.000000,4.000000,4.000000,4.000000,4.000000,100.000000,,,,,,,,,,,,,,,,,,,,,,,,,,,,
1677472330.621730,1677472330.622116,48.000000,0.000000,4344.230957,4405.384766,4318.077148,4322.436035,4296.282227,4264.230957,4267.307617,4263.717773,4162.436035,4227.563965,4444.102539,4475.128418,4290.384766,4496.282227,0.000000,4.000000,98.000000,,,,0.000000,4.000000,4.000000,4.000000,4.000000,4.000000,4.000000,4.000000,4.000000,4.000000,4.000000,4.000000,4.000000,4.000000,4.000000,100.000000,,,,,,,,,,,,,,,,,12.000000,0.000000,0.701018,-0.219604,-0.677856,-0.029297,0.980588,-0.284214,-0.015139,-109.579819,26.704777,2.670126
1677472330.629538,1677472330.629924,49.000000,0.000000,4332.051270,4385.384766,4305.256348,4308.461426,4285.000000,4262.563965,4264.230957,4263.077148,4159.615234,4218.077148,4427.179688,4463.974121,4264.743652,4474.615234,0.000000,4.000000,98.000000,,,,0.000000,4.000000,4.000000,4.000000,4.000000,4.000000,4.000000,4.000000,4.000000,4.000000,4.000000,4.000000,4.000000,4.000000,4.000000,100.000000,,,,,,,,,,,,,,,,,,,,,,,,,,,,
1677472330.637346,1677472330.637632,50.000000,0.000000,4317.051270,4368.333496,4291.410156,4299.743652,4278.333496,4267.179688,4265.512695,4259.102539,4152.179688,4213.589844,4413.846191,4451.922852,4248.974121,4459.102539,0.000000,4.000000,98.000000,,,,0.000000,4.000000,4.000000,4.000000,4.000000,4.000000,4.000000,4.000000,4.000000,4.000000,4.000000,4.000000,4.000000,4.000000,4.000000,100.000000,,,,,,,,,,,,,,,,,,,,,,,,,,,,
1677472330.645154,1677472330.645439,51.000000,0.000000,4319.615234,4378.205078,4295.128418,4307.051270,4285.641113,4271.794922,4269.358887,4263.974121,4157.436035,4215.641113,4424.743652,4458.717773,4263.974121,4467.692383,0.000000,4.000000,98.000000,,,,0.000000,4.000000,4.000000,4.000000,4.000000,4.000000,4.000000,4.000000,4.000000,4.000000,4.000000,4.000000,4.000000,4.000000,4.000000,100.000000,,,,,,,,,,,,,,,,,,,,,,,,,,,,
1677472330.652962,1677472330.653147,52.000000,0.000000,4327.179688,4392.436035,4301.666504,4315.384766,4293.205078,4269.230957,4268.461426,4263.461426,4159.487305,4218.461426,4431.666504,4467.051270,4273.974121,4474.615234,0.000000,4.000000,98.000000,,,,0.000000,4.000000,4.000000,4.000000,4.000000,4.000000,4.000000,4.000000,4.000000,4.000000,4.000000,4.000000,4.000000,4.000000,4.000000,100.000000,,,,,,,,,,,,,,,,,13.000000,0.000000,0.700965,-0.223328,-0.676697,-0.029236,0.975705,-0.279331,-0.009767,-109.571838,26.567633,2.669780
1677472330.660770,1677472330.660955,53.000000,0.000000,4325.256348,4390.897461,4298.205078,4316.025879,4292.051270,4261.410156,4260.769043,4243.846191,4147.307617,4216.282227,4424.358887,4458.333496,4267.820313,4468.333496,0.000000,4.000000,98.000000,,,,0.000000,4.000000,4.000000,4.000000,4.000000,4.000000,4.000000,4.000000,4.000000,4.000000,4.000000,4.000000,4.000000,4.000000,4.000000,100.000000,,,,,,,,,,,,,,,,,,,,,,,,,,,,
1677472330.668578,1677472330.668663,54.000000,0.000000,4326.794922,4394.615234,4300.384766,4318.333496,4292.307617,4259.743652,4261.538574,4231.538574,4139.102539,4216.538574,4422.051270,4454.358887,4271.282227,4466.025879,0.000000,4.000000,98.000000,,,,0.000000,4.000000,4.000000,4.000000,4.000000,4.000000,4.000000,4.000000,4.000000,4.000000,4.000000,4.000000,4.000000,4.000000,4.000000,100.000000,,,,,,,,,,,,,,,,,,,,,,,,,,,,
1677472330.676386,1677472330.676471,55.000000,0.000000,4340.769043,4422.179688,4315.256348,4331.922852,4304.743652,4271.153809,4272.051270,4240.769043,4149.358887,4228.461426,4435.384766,4471.794922,4287.436035,4481.794922,0.000000,4.000000,98.000000,,,,0.000000,4.000000,4.000000,4.000000,4.000000,4.000000,4.000000,4.000000,4.000000,4.000000,4.000000,4.000000,4.000000,4.000000,4.000000,100.000000,,,,,,,,,,,,,,,,,,,,,,,,,,,,
1677472330.684194,1677472330.684178,56.000000,0.000000,4353.589844,4430.000000,4328.461426,4339.230957,4312.307617,4280.256348,4278.461426,4257.436035,4167.563965,4237.948730,4451.538574,4494.615234,4299.615234,4502.436035,0.000000,4.000000,98.000000,,,,0.000000,4.000000,4.000000,4.000000,4.000000,4.000000,4.000000,4.000000,4.000000,4.000000,4.000000,4.000000,4.000000,4.000000,4.000000,100.000000,,,,,,,,,,,,,,,,,14.000000,0.000000,0.700843,-0.226990,-0.675598,-0.029358,0.949823,-0.279331,-0.011232,-109.731316,26.310869,2.436135
1677472330.692002,1677472330.691986,57.000000,0.000000,4349.487305,4400.384766,4323.846191,4327.948730,4302.179688,4277.179688,4275.000000,4267.307617,4173.333496,4236.282227,4452.436035,4497.179688,4294.871582,4498.205078,0.000000,4.000000,98.000000,,,,0.000000,4.000000,4.000000,4.000000,4.000000,4.000000,4.000000,4.000000,4.000000,4.000000,4.000000,4.000000,4.000000,4.000000,4.000000,100.000000,,,,,,,,,,,,,,,,,,,,,,,,,,,,
1677472330.699810,1677472330.699694,58.000000,0.000000,4339.615234,4390.256348,4316.153809,4322.563965,4297.436035,4276.282227,4276.538574,4278.205078,4173.846191,4230.769043,4445.256348,4491.025879,4283.333496,4481.922852,0.000000,4.000000,98.000000,,,,0.000000,4.000000,4.000000,4.000000,4.000000,4.000000,4.000000,4.000000,4.000000,4.000000,4.000000,4.000000,4.000000,4.000000,4.000000,100.000000,,,,,,,,,,,,,,,,,,,,,,,,,,,,
1677472330.707618,1677472330.707602,59.000000,0.000000,4330.641113,4401.410156,4312.436035,4326.666504,4304.615234,4283.846191,4281.538574,4284.102539,4175.000000,4223.077148,4441.794922,4488.589844,4280.641113,4475.512695,0.000000,4.000000,98.000000,,,,0.000000,4.000000,4.000000,4.000000,4.000000,4.000000,4.000000,4.000000,4.000000,4.000000,4.000000,4.000000,4.000000,4.000000,4.000000,100.000000,,,,,,,,,,,,,,,,,,,,,,,,,,,,
1677472330.715426,1677472330.715410,60.000000,0.000000,4320.000000,4397.179688,4304.102539,4322.307617,4300.256348,4285.512695,4279.743652,4273.846191,4164.230957,4217.179688,4433.846191,4478.589844,4275.000000,4467.436035,0.000000,4.000000,98.000000,,,,0.000000,4.000000,4.000000,4.000000,4.000000,4.000000,4.000000,4.000000,4.000000,4.000000,4.000000,4.000000,4.000000,4.000000,4.000000,100.000000,,,,,,,,,,,,,,,,,15.000000,0.000000,0.700796,-0.229614,-0.674744,-0.029724,0.941033,-0.269564,-0.015139,-109.624855,25.963116,2.342522
1677472330.723234,1677472330.723318,61.000000,0.000000,4313.846191,4391.153809,4298.717773,4319.871582,4296.153809,4281.538574,4277.820313,4264.871582,4152.948730,4219.102539,4425.128418,4466.794922,4262.948730,4456.410156,0.000000,4.000000,98.000000,,,,0.000000,4.000000,4.000000,4.000000,4.000000,4.000000,4.000000,4.000000,4.000000,4.000000,4.000000,4.000000,4.000000,4.000000,4.000000,100.000000,,,,,,,,,,,,,,,,,,,,,,,,,,,,
1677472330.731042,1677472330.731126,62.000000,0.000000,4313.974121,4393.333496,4302.948730,4326.282227,4306.666504,4281.153809,4279.358887,4258.077148,4149.358887,4219.230957,4427.436035,4465.641113,4264.871582,4455.769043,0.000000,4.000000,98.000000,,,,0.000000,4.000000,4.000000,4.000000,4.000000,4.000000,4.000000,4.000000,4.000000,4.000000,4.000000,4.000000,4.000000,4.000000,4.000000,100.000000,,,,,,,,,,,,,,,,,,,,,,,,,,,,
1677472330.738850,1677472330.739034,63.000000,0.000000,4311.922852,4391.538574,4304.743652,4326.922852,4311.666504,4281.282227,4276.410156,4237.692383,4140.641113,4216.410156,4425.000000,4461.666504,4268.717773,4450.256348,0.000000,4.000000,98.000000,,,,0.000000,4.000000,4.000000,4.000000,4.000000,4.000000,4.000000,4.000000,4.000000,4.000000,4.000000,4.000000,4.000000,4.000000,4.000000,100.000000,,,,,,,,,,,,,,,,,,,,,,,,,,,,
1677472330.746658,1677472330.746841,64.000000,0.000000,4310.000000,4395.128418,4300.769043,4326.025879,4308.717773,4277.179688,4266.922852,4224.358887,4134.615234,4221.538574,4420.384766,4452.948730,4264.743652,4439.230957,5454.000000,4.000000,98.000000,,,,0.000000,4.000000,4.000000,4.000000,4.000000,4.000000,4.000000,4.000000,4.000000,4.000000,4.000000,4.000000,4.000000,4.000000,4.000000,100.000000,,,,,,,,,,,,,,,,,16.000000,0.000000,0.700898,-0.230347,-0.674377,-0.029968,0.949335,-0.268587,-0.018069,-109.579033,25.716805,2.274936
1677472330.754466,1677472330.754749,65.000000,0.000000,4312.307617,4395.641113,4301.153809,4326.666504,4307.948730,4268.589844,4259.743652,4235.641113,4144.102539,4227.692383,4425.512695,4457.692383,4269.230957,4443.589844,4826.000000,4.000000,98.000000,,,,0.000000,4.000000,4.000000,4.000000,4.000000,4.000000,4.000000,4.000000,4.000000,4.000000,4.000000,4.000000,4.000000,4.000000,4.000000,100.000000,,,,,,,,,,,,,,,,,,,,,,,,,,,,
1677472330.762274,1677472330.762557,66.000000,0.000000,4309.615234,4388.846191,4302.051270,4327.820313,4311.025879,4263.205078,4259.615234,4250.641113,4159.358887,4228.846191,4431.282227,4466.025879,4277.948730,4447.948730,5275.000000,4.000000,98.000000,,,,0.000000,4.000000,4.000000,4.000000,4.000000,4.000000,4.000000,4.000000,4.000000,4.000000,4.000000,4.000000,4.000000,4.000000,4.000000,100.000000,,,,,,,,,,,,,,,,,,,,,,,,,,,,
1677472330.770082,1677472330.770464,67.000000,0.000000,4304.487305,4391.025879,4299.871582,4329.615234,4310.256348,4268.205078,4267.692383,4264.102539,4171.410156,4233.461426,4436.666504,4468.974121,4280.128418,4441.025879,5454.000000,4.000000,98.000000,,,,0.000000,4.000000,4.000000,4.000000,4.000000,4.000000,4.000000,4.000000,4.000000,4.000000,4.000000,4.000000,4.000000,4.000000,4.000000,100.000000,,,,,,,,,,,,,,,,,,,,,,,,,,,,
1677472330.777890,1677472330.778272,68.000000,0.000000,4298.205078,4379.871582,4290.769043,4318.205078,4300.641113,4276.666504,4272.307617,4275.512695,4171.025879,4232.563965,4437.051270,4466.794922,4275.769043,4432.179688,4811.000000,4.000000,98.000000,,,,0.000000,4.000000,4.000000,4.000000,4.000000,4.000000,4.000000,4.000000,4.000000,4.000000,4.000000,4.000000,4.000000,4.000000,4.000000,100.000000,,,,,,,,,,,,,,,,,17.000000,0.000000,0.701745,-0.230957,-0.673279,-0.030151,0.957636,-0.277866,-0.012209,-109.504463,25.411791,2.347443
1677472330.785698,1677472330.786180,69.000000,0.000000,4286.922852,4353.717773,4281.282227,4302.563965,4292.436035,4279.358887,4270.512695,4269.743652,4157.948730,4220.000000,4422.563965,4457.436035,4262.436035,4423.717773,4946.000000,4.000000,98.000000,,,,0.000000,4.000000,4.000000,4.000000,4.000000,4.000000,4.000000,4.000000,4.000000,4.000000,4.000000,4.000000,4.000000,4.000000,4.000000,100.000000,,,,,,,,,,,,,,,,,,,,,,,,,,,,
1677472330.793506,1677472330.793988,70.000000,0.000000,4281.282227,4351.153809,4277.820313,4303.974121,4293.333496,4279.871582,4266.666504,4255.384766,4151.794922,4212.307617,4410.000000,4445.897461,4248.461426,4416.666504,3884.000000,4.000000,98.000000,,,,0.000000,4.000000,4.000000,4.000000,4.000000,4.000000,4.000000,4.000000,4.000000,4.000000,4.000000,4.000000,4.000000,4.000000,4.000000,100.000000,,,,,,,,,,,,,,,,,,,,,,,,,,,,
1677472330.801314,1677472330.801695,71.000000,0.000000,4279.102539,4360.641113,4273.461426,4310.128418,4295.128418,4281.410156,4267.179688,4250.641113,4150.384766,4215.769043,4413.717773,4440.128418,4247.820313,4411.410156,5091.000000,4.000000,98.000000,,,,0.000000,4.000000,4.000000,4.000000,4.000000,4.000000,4.000000,4.000000,4.000000,4.000000,4.000000,4.000000,4.000000,4.000000,4.000000,100.000000,,,,,,,,,,,,,,,,,,,,,,,,,,,,
1677472330.809122,1677472330.809503,72.000000,0.000000,4276.666504,4356.153809,4271.794922,4305.641113,4293.717773,4282.307617,4270.512695,4244.743652,4145.128418,4217.051270,4416.922852,4441.922852,4253.717773,4412.307617,5006.000000,4.000000,98.000000,,,,0.000000,4.000000,4.000000,4.000000,4.000000,4.000000,4.000000,4.000000,4.000000,4.000000,4.000000,4.000000,4.000000,4.000000,4.000000,100.000000,,,,,,,,,,,,,,,,,18.000000,0.000000,0.702905,-0.231201,-0.671997,-0.029846,0.950311,-0.316445,0.011720,-109.387352,25.170610,2.446032
1677472330.816930,1677472330.817211,73.000000,0.000000,4284.743652,4357.820313,4283.974121,4307.692383,4296.794922,4283.717773,4269.871582,4234.102539,4147.307617,4220.128418,4418.589844,4451.153809,4261.282227,4423.974121,4734.000000,4.000000,98.000000,,,,0.000000,4.000000,4.000000,4.000000,4.000000,4.000000,4.000000,4.000000,4.000000,4.000000,4.000000,4.000000,4.000000,4.000000,4.000000,100.000000,,,,,,,,,,,,,,,,,,,,,,,,,,,,
1677472330.824738,1677472330.825119,74.000000,0.000000,4298.589844,4375.128418,4298.205078,4319.487305,4301.538574,4282.692383,4266.410156,4231.025879,4153.077148,4231.410156,4427.179688,4458.461426,4272.436035,4435.641113,6043.000000,4.000000,98.000000,,,,0.000000,4.000000,4.000000,4.000000,4.000000,4.000000,4.000000,4.000000,4.000000,4.000000,4.000000,4.000000,4.000000,4.000000,4.000000,100.000000,,,,,,,,,,,,,,,,,,,,,,,,,,,,
1677472330.832546,1677472330.832927,75.000000,0.000000,4300.641113,4378.717773,4296.153809,4319.487305,4301.922852,4273.205078,4265.897461,4232.692383,4153.974121,4236.794922,4430.769043,4457.436035,4276.666504,4435.128418,6290.000000,4.000000,98.000000,,,,0.000000,4.000000,4.000000,4.000000,4.000000,4.000000,4.000000,4.000000,4.000000,4.000000,4.000000,4.000000,4.000000,4.000000,4.000000,100.000000,,,,,,,,,,,,,,,,,,,,,,,,,,,,
1677472330.840354,1677472330.840835,76.000000,0.000000,4291.282227,4364.871582,4288.461426,4310.000000,4297.307617,4260.512695,4258.974121,4229.102539,4152.820313,4231.282227,4426.922852,4448.333496,4274.102539,4428.717773,6030.000000,4.000000,98.000000,,,,0.000000,4.000000,4.000000,4.000000,4.000000,4.000000,4.000000,4.000000,4.000000,4.000000,4.000000,4.000000,4.000000,4.000000,4.000000,100.000000,1.000000,41.666668,3.000000,1.000000,3.000000,4.000000,4.000000,4.000000,4.000000,4.000000,1.000000,4.000000,4.000000,4.000000,4.000000,3.000000,19.000000,0.000000,0.703887,-0.231995,-0.670715,-0.029358,0.942986,-0.331095,0.012697,-109.365280,24.953550,2.418095
1677472330.848162,1677472330.848643,77.000000,0.000000,4287.179688,4358.333496,4283.333496,4308.205078,4284.230957,4258.205078,4251.538574,4230.769043,4153.589844,4231.410156,4426.922852,4439.743652,4275.384766,4425.128418,6796.000000,4.000000,98.000000,,,,0.000000,4.000000,4.000000,4.000000,4.000000,4.000000,4.000000,4.000000,4.000000,4.000000,4.000000,4.000000,4.000000,4.000000,4.000000,100.000000,,,,,,,,,,,,,,,,,,,,,,,,,,,,
1677472330.855970,1677472330.856451,78.000000,0.000000,4283.589844,4356.794922,4279.102539,4307.820313,4272.436035,4264.102539,4258.717773,4247.948730,4159.487305,4231.666504,4432.820313,4440.641113,4277.051270,4421.410156,6043.000000,4.000000,98.000000,,,,0.000000,4.000000,4.000000,4.000000,4.000000,4.000000,4.000000,4.000000,4.000000,4.000000,4.000000,4.000000,4.000000,4.000000,4.000000,100.000000,,,,,,,,,,,,,,,,,,,,,,,,,,,,
1677472330.863778,1677472330.864158,79.000000,0.000000,4263.846191,4339.102539,4266.794922,4291.410156,4262.179688,4263.461426,4265.641113,4258.205078,4158.077148,4220.641113,4425.769043,4433.717773,4262.563965,4406.025879,6290.000000,4.000000,98.000000,,,,0.000000,4.000000,4.000000,4.000000,4.000000,4.000000,4.000000,4.000000,4.000000,4.000000,4.000000,4.000000,4.000000,4.000000,4.000000,100.000000,,,,,,,,,,,,,,,,,,,,,,,,,,,,
1677472330.871586,1677472330.871966,80.000000,0.000000,4244.871582,4321.538574,4250.384766,4278.846191,4251.794922,4262.563965,4261.922852,4253.077148,4144.743652,4211.282227,4408.974121,4415.384766,4247.948730,4389.871582,6030.000000,4.000000,98.000000,,,,0.000000,4.000000,4.000000,4.000000,4.000000,4.000000,4.000000,4.000000,4.000000,4.000000,4.000000,4.000000,4.000000,4.000000,4.000000,100.000000,,,,,,,,,,,,,,,,,20.000000,0.000000,0.704928,-0.233459,-0.669128,-0.028992,0.936149,-0.329142,0.018557,-109.295418,24.574862,2.526286
1677472330.879394,1677472330.879674,81.000000,0.000000,4246.025879,4321.538574,4251.153809,4287.563965,4252.436035,4272.820313,4262.436035,4251.410156,4138.333496,4212.948730,4411.025879,4414.615234,4253.205078,4386.410156,6796.000000,4.000000,98.000000,,,,0.000000,4.000000,4.000000,4.000000,4.000000,4.000000,4.000000,4.000000,4.000000,4.000000,4.000000,4.000000,4.000000,4.000000,4.000000,100.000000,,,,,,,,,,,,,,,,,,,,,,,,,,,,
1677472330.887202,1677472330.887482,82.000000,0.000000,4257.436035,4329.615234,4269.102539,4299.102539,4261.922852,4282.948730,4273.461426,4248.461426,4140.384766,4219.871582,4427.179688,4433.717773,4271.025879,4394.102539,6043.000000,4.000000,98.000000,,,,0.000000,4.000000,4.000000,4.000000,4.000000,4.000000,4.000000,4.000000,4.000000,4.000000,4.000000,4.000000,4.000000,4.000000,4.000000,100.000000,,,,,,,,,,,,,,,,,,,,,,,,,,,,
1677472330.895010,1677472330.895190,83.000000,0.000000,4265.769043,4334.487305,4279.230957,4299.487305,4263.333496,4280.384766,4277.307617,4240.512695,4143.205078,4227.563965,4432.051270,4441.794922,4284.743652,4405.641113,6290.000000,4.000000,98.000000,,,,0.000000,4.000000,4.000000,4.000000,4.000000,4.000000,4.000000,4.000000,4.000000,4.000000,4.000000,4.000000,4.000000,4.000000,4.000000,100.000000,,,,,,,,,,,,,,,,,,,,,,,,,,,,
1677472330.902818,1677472330.903097,84.000000,0.000000,4274.743652,4335.128418,4280.641113,4301.794922,4258.333496,4277.436035,4272.692383,4238.846191,4150.641113,4234.230957,4432.436035,4441.922852,4289.358887,4413.461426,6030.000000,4.000000,98.000000,,,,0.000000,4.000000,4.000000,4.000000,4.000000,4.000000,4.000000,4.000000,4.000000,4.000000,4.000000,4.000000,4.000000,4.000000,4.000000,100.000000,,,,,,,,,,,,,,,,,21.000000,0.000000,0.705757,-0.235474,-0.667542,-0.029114,0.942498,-0.326212,0.030765,-109.315880,24.117376,2.623657
1677472330.910626,1677472330.910905,85.000000,0.000000,4282.307617,4337.436035,4288.589844,4308.717773,4261.794922,4278.205078,4264.743652,4237.948730,4155.000000,4235.769043,4437.948730,4446.794922,4298.205078,4420.512695,6796.000000,4.000000,98.000000,,,,0.000000,4.000000,4.000000,4.000000,4.000000,4.000000,4.000000,4.000000,4.000000,4.000000,4.000000,4.000000,4.000000,4.000000,4.000000,100.000000,,,,,,,,,,,,,,,,,,,,,,,,,,,,
1677472330.918434,1677472330.918813,86.000000,0.000000,4283.974121,4343.077148,4294.743652,4310.000000,4266.538574,4270.897461,4259.615234,4237.948730,4156.153809,4236.794922,4441.922852,4449.102539,4303.077148,4428.077148,6043.000000,4.000000,98.000000,,,,0.000000,4.000000,4.000000,4.000000,4.000000,4.000000,4.000000,4.000000,4.000000,4.000000,4.000000,4.000000,4.000000,4.000000,4.000000,100.000000,,,,,,,,,,,,,,,,,,,,,,,,,,,,
1677472330.926242,1677472330.926621,87.000000,0.000000,4286.794922,4342.692383,4290.000000,4305.897461,4261.538574,4261.153809,4257.563965,4244.487305,4165.384766,4239.358887,4442.179688,4445.384766,4297.948730,4429.615234,6290.000000,4.000000,98.000000,,,,0.000000,4.000000,4.000000,4.000000,4.000000,4.000000,4.000000,4.000000,4.000000,4.000000,4.000000,4.000000,4.000000,4.000000,4.000000,100.000000,,,,,,,,,,,,,,,,,,,,,,,,,,,,
1677472330.934050,1677472330.934529,88.000000,0.000000,4279.743652,4331.410156,4278.589844,4298.974121,4251.410156,4258.846191,4254.230957,4246.922852,4168.333496,4235.384766,4435.256348,4435.384766,4295.256348,4417.436035,6030.000000,4.000000,98.000000,,,,0.000000,4.000000,4.000000,4.000000,4.000000,4.000000,4.000000,4.000000,4.000000,4.000000,4.000000,4.000000,4.000000,4.000000,4.000000,100.000000,,,,,,,,,,,,,,,,,22.000000,0.000000,0.706054,-0.236633,-0.666809,-0.029297,0.962520,-0.317422,0.018069,-109.300957,23.805637,2.744625
1677472330.941858,1677472330.942337,89.000000,0.000000,4264.358887,4318.205078,4267.436035,4290.256348,4246.282227,4263.077148,4255.769043,4245.256348,4162.307617,4229.487305,4424.358887,4426.794922,4288.846191,4401.153809,6796.000000,4.000000,98.000000,,,,0.000000,4.000000,4.000000,4.000000,4.000000,4.000000,4.000000,4.000000,4.000000,4.000000,4.000000,4.000000,4.000000,4.000000,4.000000,100.000000,,,,,,,,,,,,,,,,,,,,,,,,,,,,
1677472330.949666,1677472330.950245,90.000000,0.000000,4264.358887,4317.307617,4268.974121,4289.358887,4247.820313,4266.282227,4266.666504,4249.743652,4162.563965,4228.846191,4427.051270,4432.307617,4278.461426,4400.641113,6043.000000,4.000000,98.000000,,,,0.000000,4.000000,4.000000,4.000000,4.000000,4.000000,4.000000,4.000000,4.000000,4.000000,4.000000,4.000000,4.000000,4.000000,4.000000,100.000000,,,,,,,,,,,,,,,,,,,,,,,,,,,,
1677472330.957474,1677472330.958052,91.000000,0.000000,4278.717773,4333.461426,4280.384766,4300.512695,4252.948730,4265.897461,4271.538574,4252.948730,4160.384766,4230.769043,4433.717773,4443.974121,4282.563965,4412.563965,6290.000000,4.000000,98.000000,,,,0.000000,4.000000,4.000000,4.000000,4.000000,4.000000,4.000000,4.000000,4.000000,4.000000,4.000000,4.000000,4.000000,4.000000,4.000000,100.000000,,,,,,,,,,,,,,,,,,,,,,,,,,,,
1677472330.965282,1677472330.965960,92.000000,0.000000,4286.666504,4340.641113,4288.589844,4307.820313,4258.077148,4271.410156,4269.487305,4253.333496,4154.487305,4233.205078,4434.358887,4450.128418,4296.538574,4422.563965,6030.000000,4.000000,98.000000,,,,0.000000,4.000000,4.000000,4.000000,4.000000,4.000000,4.000000,4.000000,4.000000,4.000000,4.000000,4.000000,4.000000,4.000000,4.000000,100.000000,,,,,,,,,,,,,,,,,23.000000,0.000000,0.706334,-0.239014,-0.665649,-0.029602,0.961543,-0.328165,0.013185,-109.370865,23.608408,2.770162
1677472330.973090,1677472330.973768,93.000000,0.000000,4289.102539,4337.436035,4293.717773,4307.948730,4264.102539,4278.589844,4273.846191,4258.717773,4159.487305,4240.897461,4446.538574,4457.436035,4306.794922,4431.410156,6796.000000,4.000000,98.000000,,,,0.000000,4.000000,4.000000,4.000000,4.000000,4.000000,4.000000,4.000000,4.000000,4.000000,4.000000,4.000000,4.000000,4.000000,4.000000,100.000000,,,,,,,,,,,,,,,,,,,,,,,,,,,,
1677472330.980898,1677472330.981476,94.000000,0.000000,4301.538574,4347.307617,4308.461426,4312.948730,4273.589844,4280.128418,4281.282227,4263.717773,4171.282227,4250.384766,4461.410156,4473.846191,4320.128418,4446.922852,6043.000000,4.000000,98.000000,,,,0.000000,4.000000,4.000000,4.000000,4.000000,4.000000,4.000000,4.000000,4.000000,4.000000,4.000000,4.000000,4.000000,4.000000,4.000000,100.000000,,,,,,,,,,,,,,,,,,,,,,,,,,,,
1677472330.988706,1677472330.989283,95.000000,0.000000,4309.615234,4352.051270,4318.846191,4319.358887,4275.769043,4278.974121,4278.717773,4265.256348,4176.794922,4253.974121,4462.307617,4484.102539,4328.974121,4453.974121,6290.000000,4.000000,98.000000,,,,0.000000,4.000000,4.000000,4.000000,4.000000,4.000000,4.000000,4.000000,4.000000,4.000000,4.000000,4.000000,4.000000,4.000000,4.000000,100.000000,,,,,,,,,,,,,,,,,,,,,,,,,,,,
1677472330.996514,1677472330.996991,96.000000,0.000000,4301.922852,4342.307617,4307.436035,4315.000000,4267.051270,4272.179688,4267.692383,4258.205078,4172.692383,4252.051270,4459.743652,4476.922852,4324.358887,4446.794922,6030.000000,4.000000,98.000000,,,,0.000000,4.000000,4.000000,4.000000,4.000000,4.000000,4.000000,4.000000,4.000000,4.000000,4.000000,4.000000,4.000000,4.000000,4.000000,100.000000,,,,,,,,,,,,,,,,,24.000000,0.000000,0.705981,-0.241577,-0.665100,-0.029541,0.961543,-0.321817,0.020999,-109.350441,23.297567,2.993146
1677472331.004322,1677472331.004799,97.000000,0.000000,4297.307617,4340.769043,4298.717773,4308.974121,4263.205078,4265.128418,4262.307617,4251.410156,4168.077148,4250.512695,4457.563965,4466.666504,4319.102539,4440.256348,6796.000000,4.000000,98.000000,,,,0.000000,4.000000,4.000000,4.000000,4.000000,4.000000,4.000000,4.000000,4.000000,4.000000,4.000000,4.000000,4.000000,4.000000,4.000000,100.000000,,,,,,,,,,,,,,,,,,,,,,,,,,,,
1677472331.012130,1677472331.012507,98.000000,0.000000,4298.461426,4341.410156,4302.307617,4310.256348,4267.179688,4271.794922,4267.307617,4263.461426,4171.794922,4248.205078,4450.256348,4466.153809,4314.743652,4437.563965,6043.000000,4.000000,98.000000,,,,0.000000,4.000000,4.000000,4.000000,4.000000,4.000000,4.000000,4.000000,4.000000,4.000000,4.000000,4.000000,4.000000,4.000000,4.000000,100.000000,,,,,,,,,,,,,,,,,,,,,,,,,,,,
1677472331.019938,1677472331.020315,99.000000,0.000000,4290.000000,4327.563965,4294.487305,4307.563965,4262.563965,4281.153809,4274.615234,4276.794922,4173.846191,4240.128418,4443.974121,4465.000000,4302.820313,4428.333496,6290.000000,4.000000,98.000000,,,,0.000000,4.000000,4.000000,4.000000,4.000000,4.000000,4.000000,4.000000,4.000000,4.000000,4.000000,4.000000,4.000000,4.000000,4.000000,100.000000,,,,,,,,,,,,,,,,,,,,,,,,,,,,
1677472331.027747,1677472331.028022,100.000000,0.000000,4277.563965,4319.615234,4282.436035,4299.487305,4257.307617,4279.487305,4275.769043,4273.205078,4168.461426,4230.128418,4442.307617,4458.717773,4295.384766,4416.538574,6030.000000,4.000000,98.000000,,,,0.000000,4.000000,4.000000,4.000000,4.000000,4.000000,4.000000,4.000000,4.000000,4.000000,4.000000,4.000000,4.000000,4.000000,4.000000,100.000000,,,,,,,,,,,,,,,,,25.000000,0.000000,0.705088,-0.244080,-0.665161,-0.028931,0.962031,-0.329142,0.015139,-109.248734,22.867809,3.077165
1677472331.035555,1677472331.035830,101.000000,0.000000,4274.487305,4316.410156,4286.025879,4294.743652,4260.897461,4282.179688,4280.512695,4273.333496,4162.179688,4228.717773,4439.102539,4457.692383,4293.461426,4410.256348,6796.000000,4.000000,98.000000,,,,0.000000,4.000000,4.000000,4.000000,4.000000,4.000000,4.000000,4.000000,4.000000,4.000000,4.000000,4.000000,4.000000,4.000000,4.000000,100.000000,,,,,,,,,,,,,,,,,,,,,,,,,,,,
1677472331.043363,1677472331.043538,102.000000,0.000000,4273.205078,4309.487305,4288.205078,4295.128418,4263.205078,4291.666504,4283.461426,4277.179688,4162.179688,4236.666504,4440.128418,4459.358887,4292.948730,4411.922852,6043.000000,4.000000,98.000000,,,,0.000000,4.000000,4.000000,4.000000,4.000000,4.000000,4.000000,4.000000,4.000000,4.000000,4.000000,4.000000,4.000000,4.000000,4.000000,100.000000,,,,,,,,,,,,,,,,,,,,,,,,,,,,
1677472331.051170,1677472331.051346,103.000000,0.000000,4271.922852,4309.871582,4282.307617,4295.384766,4264.102539,4294.871582,4280.641113,4270.128418,4164.358887,4240.512695,4446.410156,4459.615234,4299.487305,4418.461426,6290.000000,4.000000,98.000000,,,,0.000000,4.000000,4.000000,4.000000,4.000000,4.000000,4.000000,4.000000,4.000000,4.000000,4.000000,4.000000,4.000000,4.000000,4.000000,100.000000,,,,,,,,,,,,,,,,,,,,,,,,,,,,
1677472331.058978,1677472331.059053,104.000000,0.000000,4268.589844,4310.897461,4277.307617,4294.615234,4263.077148,4291.538574,4277.436035,4258.077148,4161.794922,4236.922852,4440.000000,4454.358887,4297.051270,4412.563965,6030.000000,4.000000,98.000000,,,,0.000000,4.000000,4.000000,4.000000,4.000000,4.000000,4.000000,4.000000,4.000000,4.000000,4.000000,4.000000,4.000000,4.000000,4.000000,100.000000,,,,,,,,,,,,,,,,,26.000000,0.000000,0.704204,-0.245850,-0.665466,-0.028442,0.964962,-0.323282,0.007813,-109.157188,22.514362,3.069448
1677472331.066787,1677472331.066861,105.000000,0.000000,4264.743652,4310.000000,4272.948730,4295.128418,4264.743652,4283.077148,4273.461426,4248.333496,4153.461426,4238.974121,4432.179688,4447.563965,4293.461426,4403.333496,6796.000000,4.000000,98.000000,,,,0.000000,4.000000,4.000000,4.000000,4.000000,4.000000,4.000000,4.000000,4.000000,4.000000,4.000000,4.000000,4.000000,4.000000,4.000000,100.000000,,,,,,,,,,,,,,,,,,,,,,,,,,,,
1677472331.074595,1677472331.074569,106.000000,0.000000,4267.948730,4311.922852,4273.589844,4295.512695,4273.717773,4276.282227,4267.563965,4238.974121,4151.410156,4249.743652,4441.025879,4448.461426,4310.769043,4410.769043,6043.000000,4.000000,98.000000,,,,0.000000,4.000000,4.000000,4.000000,4.000000,4.000000,4.000000,4.000000,4.000000,4.000000,4.000000,4.000000,4.000000,4.000000,4.000000,100.000000,,,,,,,,,,,,,,,,,,,,,,,,,,,,
1677472331.082403,1677472331.082377,107.000000,0.000000,4271.282227,4310.000000,4277.179688,4297.563965,4279.615234,4275.128418,4263.589844,4236.666504,4158.974121,4251.922852,4447.179688,4449.487305,4321.025879,4414.230957,6290.000000,4.000000,98.000000,,,,0.000000,4.000000,4.000000,4.000000,4.000000,4.000000,4.000000,4.000000,4.000000,4.000000,4.000000,4.000000,4.000000,4.000000,4.000000,100.000000,,,,,,,,,,,,,,,,,,,,,,,,,,,,
1677472331.090211,1677472331.090085,108.000000,0.000000,4261.153809,4303.077148,4272.436035,4294.743652,4276.922852,4275.000000,4264.102539,4250.769043,4167.051270,4244.615234,4440.641113,4447.051270,4300.256348,4399.358887,6030.000000,4.000000,98.000000,,,,0.000000,4.000000,4.000000,4.000000,4.000000,4.000000,4.000000,4.000000,4.000000,4.000000,4.000000,4.000000,4.000000,4.000000,4.000000,100.000000,,,,,,,,,,,,,,,,,27.000000,0.000000,0.703104,-0.246704,-0.666321,-0.028259,0.964473,-0.329142,-0.004395,-109.224808,22.262926,3.112504
1677472331.098019,1677472331.097892,109.000000,0.000000,4250.000000,4294.743652,4267.307617,4287.307617,4273.589844,4279.615234,4269.871582,4271.025879,4174.230957,4241.153809,4439.230957,4450.897461,4288.846191,4391.922852,6796.000000,4.000000,98.000000,,,,0.000000,4.000000,4.000000,4.000000,4.000000,4.000000,4.000000,4.000000,4.000000,4.000000,4.000000,4.000000,4.000000,4.000000,4.000000,100.000000,,,,,,,,,,,,,,,,,,,,,,,,,,,,
1677472331.105827,1677472331.105600,110.000000,0.000000,4250.512695,4284.230957,4269.102539,4284.102539,4275.000000,4290.512695,4280.897461,4284.743652,4175.000000,4241.666504,4445.000000,4455.384766,4301.025879,4398.974121,6043.000000,4.000000,98.000000,,,,0.000000,4.000000,4.000000,4.000000,4.000000,4.000000,4.000000,4.000000,4.000000,4.000000,4.000000,4.000000,4.000000,4.000000,4.000000,100.000000,,,,,,,,,,,,,,,,,,,,,,,,,,,,
1677472331.113635,1677472331.113508,111.000000,0.000000,4252.051270,4279.487305,4268.846191,4285.641113,4272.563965,4296.025879,4287.820313,4288.461426,4171.794922,4239.102539,4443.589844,4454.230957,4297.948730,4398.717773,6290.000000,4.000000,98.000000,,,,0.000000,4.000000,4.000000,4.000000,4.000000,4.000000,4.000000,4.000000,4.000000,4.000000,4.000000,4.000000,4.000000,4.000000,4.000000,100.000000,,,,,,,,,,,,,,,,,,,,,,,,,,,,
1677472331.121443,1677472331.121316,112.000000,0.000000,4252.051270,4282.948730,4268.205078,4284.487305,4264.230957,4291.410156,4284.743652,4288.717773,4172.179688,4238.589844,4443.461426,4461.025879,4293.846191,4400.384766,6030.000000,4.000000,98.000000,,,,0.000000,4.000000,4.000000,4.000000,4.000000,4.000000,4.000000,4.000000,4.000000,4.000000,4.000000,4.000000,4.000000,4.000000,4.000000,100.000000,,,,,,,,,,,,,,,,,28.000000,0.000000,0.701943,-0.246460,-0.667603,-0.028992,0.946893,-0.329630,-0.002930,-109.252327,21.986633,3.151253
1677472331.129251,1677472331.129224,113.000000,0.000000,4251.922852,4280.128418,4268.974121,4279.615234,4262.436035,4286.922852,4278.846191,4285.897461,4172.692383,4244.871582,4447.436035,4468.333496,4305.512695,4406.025879,6796.000000,4.000000,98.000000,,,,0.000000,4.000000,4.000000,4.000000,4.000000,4.000000,4.000000,4.000000,4.000000,4.000000,4.000000,4.000000,4.000000,4.000000,4.000000,100.000000,,,,,,,,,,,,,,,,,,,,,,,,,,,,
1677472331.137059,1677472331.137032,114.000000,0.000000,4249.358887,4274.615234,4271.410156,4283.077148,4272.179688,4289.487305,4280.384766,4278.589844,4171.153809,4247.948730,4444.743652,4463.974121,4304.358887,4400.128418,6043.000000,4.000000,98.000000,,,,0.000000,4.000000,4.000000,4.000000,4.000000,4.000000,4.000000,4.000000,4.000000,4.000000,4.000000,4.000000,4.000000,4.000000,4.000000,100.000000,,,,,,,,,,,,,,,,,,,,,,,,,,,,
1677472331.144867,1677472331.144939,115.000000,0.000000,4252.948730,4281.794922,4274.743652,4293.461426,4280.769043,4292.179688,4282.948730,4269.230957,4167.563965,4246.153809,4444.487305,4461.666504,4300.641113,4399.615234,6290.000000,4.000000,98.000000,,,,0.000000,4.000000,4.000000,4.000000,4.000000,4.000000,4.000000,4.000000,4.000000,4.000000,4.000000,4.000000,4.000000,4.000000,4.000000,100.000000,,,,,,,,,,,,,,,,,,,,,,,,,,,,
